»»»»»»»»»»»»»»»»»»»»»»»»»»»»»»»»»»»» Hysteresis ««««««««««««««««««««««««««««««««««««
»»»  Executed Version:	5.16.2
»»»  Vision Version:	5.16.10 (R)
»»»  Vision Compiled:	4/26/18
»»»  Driver Version:	5.16.6
»»»  Windows Version:	Windows 8
»»»  Processor Information:	x86 (AMD or Intel) - 8 Processors
»»»  Tester Name:	PPM21016-863
»»»  Tester S/N:	PPM21016-863
»»»  Internal Amp Type:	 RTI ML200V    
»»»  Internal Amp S/N:	 iAB2-0000     
»»»  Execution Count:	1
»»»»»»»»»»»»»»»»»»»»»»»»»»»»»»»»»»»»»»»»»»««««««««««««««««««««««««««««««««««««««««««

Stored:	8/2/2018 - 13:26:39
Configured:	08/02/18 01:13:44 PM
Executed:	08/02/18 01:25:48 PM

»»»»»»»»»»»»»»»»»»»»»»»»»»»»»»»»»»» Sample Info ««««««««««««««««««««««««««««««««««««
Sample Name:	Internal Reference Cap.
Lot Name:	N/A
Wafer Name:	N/A
Die Row/Column:	0/0
Capacitor Number:	0
Sample Area (cm2):	6.20e-005
Sample Thickness (µm):	1.00e-001

Mux Loop Adjustment:	Disabled

Amplifier:	Internal

»»»»»»»»»»»»»»»»»»»»»»»»»»»»»»»»»»» Tester Info «««««««««««««««««««««««««««««««««««
Tester Name:	PPM21016-863
Tester Serial Number:	PPM21016-863
Return Signal Amp. Level:	2.0 [Index: 0]

»»»»»»»»»»»»»»»»»»»»»»»»»»»»»»»» Hysteresis Info ««««««««««««««««««««««««««««««««««
Task Name:	Hyst-1
Volts:	50.00
Field:	5000.00 (kV/cm)
Hysteresis Period (ms):	4.00e-001
Preset:	Enabled
Preset Delay (ms):	1.00e+003
Profile:	Double Bipolar

»»»»»»»»»»»»»»»»»»»»»»»»»»»»»»»»»»»»»» Data «««««««««««««««««««««««««««««««««««««««
Points:	801

Valid Data

Point	Time (ms)	Field (kV/cm)	Measured Polarization
   1	5.0000e-004	1514.213562	-1.163485
   2	1.0000e-003	1554.748535	-1.122041
   3	1.5000e-003	1606.819153	-1.081276
   4	2.0000e-003	1648.796082	-1.039153
   5	2.5000e-003	1702.629089	-0.986839
   6	3.0000e-003	1752.456665	-0.935204
   7	3.5000e-003	1800.682068	-0.896478
   8	4.0000e-003	1850.669861	-0.846201
   9	4.5000e-003	1903.701782	-0.778940
  10	5.0000e-003	1947.601318	-0.740214
  11	5.5000e-003	1998.870850	-0.687220
  12	6.0000e-003	2049.339294	-0.613165
  13	6.5000e-003	2098.686218	-0.580553
  14	7.0000e-003	2147.392273	-0.515330
  15	7.5000e-003	2198.181152	-0.473207
  16	8.0000e-003	2245.605469	-0.407305
  17	8.5000e-003	2297.195435	-0.352952
  18	9.0000e-003	2345.901489	-0.291805
  19	9.5000e-003	2399.093628	-0.255117
  20	1.0000e-002	2446.838379	-0.166115
  21	1.0500e-002	2497.947693	-0.113121
  22	1.1000e-002	2544.250488	-0.043822
  23	1.1500e-002	2597.923279	0.019363
  24	1.2000e-002	2646.629333	0.094777
  25	1.2500e-002	2698.699951	0.164756
  26	1.3000e-002	2746.604919	0.232018
  27	1.3500e-002	2797.233582	0.301996
  28	1.4000e-002	2846.740723	0.372655
  29	1.4500e-002	2896.728516	0.455542
  30	1.5000e-002	2946.876526	0.532995
  31	1.5500e-002	2992.698669	0.607730
  32	1.6000e-002	3046.691895	0.685861
  33	1.6500e-002	3095.558167	0.778261
  34	1.7000e-002	3145.545959	0.851637
  35	1.7500e-002	3195.854187	0.956265
  36	1.8000e-002	3242.958069	1.069726
  37	1.8500e-002	3296.150208	1.177752
  38	1.9000e-002	3349.822998	1.334016
  39	1.9500e-002	3396.766663	1.440003
  40	2.0000e-002	3446.434021	1.603061
  41	2.0500e-002	3502.189636	1.765439
  42	2.1000e-002	3542.404175	1.945482
  43	2.1500e-002	3596.717834	2.107860
  44	2.2000e-002	3643.020630	2.268200
  45	2.2500e-002	3693.489075	2.425143
  46	2.3000e-002	3743.316650	2.542681
  47	2.3500e-002	3790.420532	2.692830
  48	2.4000e-002	3839.927673	2.811047
  49	2.4500e-002	3892.478943	2.910919
  50	2.5000e-002	3939.262390	3.001960
  51	2.5500e-002	3991.012573	3.093680
  52	2.6000e-002	4038.757324	3.164338
  53	2.6500e-002	4091.308594	3.257417
  54	2.7000e-002	4137.931824	3.337587
  55	2.7500e-002	4187.919617	3.400772
  56	2.8000e-002	4240.470886	3.488415
  57	2.8500e-002	4295.425415	3.571303
  58	2.9000e-002	4341.407776	3.636526
  59	2.9500e-002	4384.986877	3.711940
  60	3.0000e-002	4440.261841	3.824042
  61	3.0500e-002	4488.807678	3.864807
  62	3.1000e-002	4540.718079	3.938862
  63	3.1500e-002	4589.744568	4.014956
  64	3.2000e-002	4639.411926	4.081538
  65	3.2500e-002	4692.604065	4.150158
  66	3.3000e-002	4738.105774	4.235763
  67	3.3500e-002	4793.060303	4.298269
  68	3.4000e-002	4841.606140	4.371645
  69	3.4500e-002	4892.395020	4.443662
  70	3.5000e-002	4942.863464	4.514999
  71	3.5500e-002	4990.287781	4.585658
  72	3.6000e-002	5038.192749	4.650201
  73	3.6500e-002	5089.782715	4.707272
  74	3.7000e-002	5135.124207	4.784045
  75	3.7500e-002	5185.752869	4.848588
  76	3.8000e-002	5237.823486	4.912453
  77	3.8500e-002	5285.408020	4.953896
  78	3.9000e-002	5333.312988	5.027952
  79	3.9500e-002	5386.825562	5.070075
  80	4.0000e-002	5436.813354	5.110839
  81	4.0500e-002	5485.839844	5.176062
  82	4.1000e-002	5534.545898	5.227697
  83	4.1500e-002	5588.058472	5.281371
  84	4.2000e-002	5635.803223	5.344555
  85	4.2500e-002	5686.271667	5.387358
  86	4.3000e-002	5735.618591	5.434917
  87	4.3500e-002	5784.164429	5.491307
  88	4.4000e-002	5836.555481	5.546339
  89	4.4500e-002	5887.825012	5.600692
  90	4.5000e-002	5932.044983	5.656403
  91	4.5500e-002	5987.480164	5.688335
  92	4.6000e-002	6034.584045	5.734535
  93	4.6500e-002	6085.693359	5.789567
  94	4.7000e-002	6135.200500	5.831690
  95	4.7500e-002	6188.873291	5.879928
  96	4.8000e-002	6231.651306	5.937678
  97	4.8500e-002	6285.484314	5.976404
  98	4.9000e-002	6334.190369	6.020565
  99	4.9500e-002	6381.614685	6.062009
 100	5.0000e-002	6433.204651	6.110927
 101	5.0500e-002	6481.590271	6.155088
 102	5.1000e-002	6444.900513	6.157806
 103	5.1500e-002	6395.874023	6.136744
 104	5.2000e-002	6347.167969	6.099377
 105	5.2500e-002	6298.942566	6.079674
 106	5.3000e-002	6250.236511	6.028039
 107	5.3500e-002	6200.248718	6.010374
 108	5.4000e-002	6148.178101	5.985916
 109	5.4500e-002	6103.157043	5.932922
 110	5.5000e-002	6050.926208	5.915257
 111	5.5500e-002	6000.297546	5.884684
 112	5.6000e-002	5952.873230	5.845958
 113	5.6500e-002	5904.487610	5.816064
 114	5.7000e-002	5852.577209	5.805193
 115	5.7500e-002	5807.556152	5.763750
 116	5.8000e-002	5753.402710	5.737932
 117	5.8500e-002	5706.298828	5.713473
 118	5.9000e-002	5652.465820	5.657762
 119	5.9500e-002	5607.765198	5.635342
 120	6.0000e-002	5557.777405	5.612242
 121	6.0500e-002	5508.270264	5.577592
 122	6.1000e-002	5457.481384	5.542263
 123	6.1500e-002	5405.731201	5.515087
 124	6.2000e-002	5355.583191	5.486551
 125	6.2500e-002	5304.954529	5.447146
 126	6.3000e-002	5253.524780	5.415893
 127	6.3500e-002	5205.299377	5.366976
 128	6.4000e-002	5153.709412	5.335723
 129	6.4500e-002	5105.003357	5.309906
 130	6.5000e-002	5055.175781	5.278653
 131	6.5500e-002	5006.469727	5.239927
 132	6.6000e-002	4956.001282	5.213430
 133	6.6500e-002	4909.538269	5.176062
 134	6.7000e-002	4851.860046	5.142092
 135	6.7500e-002	4806.999207	5.110839
 136	6.8000e-002	4758.293152	5.074831
 137	6.8500e-002	4709.587097	5.037463
 138	6.9000e-002	4658.798218	5.010287
 139	6.9500e-002	4602.722168	4.955255
 140	7.0000e-002	4558.502197	4.934873
 141	7.0500e-002	4508.995056	4.898185
 142	7.1000e-002	4462.211609	4.851985
 143	7.1500e-002	4410.942078	4.811900
 144	7.2000e-002	4358.711243	4.783365
 145	7.2500e-002	4312.568665	4.735127
 146	7.3000e-002	4262.100220	4.703875
 147	7.3500e-002	4209.548950	4.674660
 148	7.4000e-002	4159.080505	4.648163
 149	7.4500e-002	4109.733582	4.606040
 150	7.5000e-002	4055.419922	4.591093
 151	7.5500e-002	4010.398865	4.521114
 152	7.6000e-002	3957.687378	4.486464
 153	7.6500e-002	3909.301758	4.451815
 154	7.7000e-002	3863.639832	4.409012
 155	7.7500e-002	3810.768127	4.370965
 156	7.8000e-002	3757.255554	4.332918
 157	7.8500e-002	3701.660156	4.300986
 158	7.9000e-002	3663.848877	4.256145
 159	7.9500e-002	3610.816956	4.213343
 160	8.0000e-002	3562.431335	4.179372
 161	8.0500e-002	3512.603760	4.148799
 162	8.1000e-002	3460.853577	4.112111
 163	8.1500e-002	3415.351868	4.078141
 164	8.2000e-002	3365.844727	4.033300
 165	8.2500e-002	3314.575195	3.995932
 166	8.3000e-002	3265.388489	3.964680
 167	8.3500e-002	3214.279175	3.925954
 168	8.4000e-002	3163.490295	3.868883
 169	8.4500e-002	3117.828369	3.832875
 170	8.5000e-002	3064.476013	3.800943
 171	8.5500e-002	3012.405396	3.767652
 172	8.6000e-002	2965.621948	3.735040
 173	8.6500e-002	2913.070679	3.699711
 174	8.7000e-002	2860.839844	3.646038
 175	8.7500e-002	2810.852051	3.608670
 176	8.8000e-002	2763.427734	3.578097
 177	8.8500e-002	2713.920593	3.531218
 178	8.9000e-002	2667.297363	3.493851
 179	8.9500e-002	2614.746094	3.442216
 180	9.0000e-002	2564.277649	3.393298
 181	9.0500e-002	2517.654419	3.360007
 182	9.1000e-002	2467.346191	3.307693
 183	9.1500e-002	2416.557312	3.268288
 184	9.2000e-002	2367.851257	3.221408
 185	9.2500e-002	2319.145203	3.179285
 186	9.3000e-002	2266.113281	3.140559
 187	9.3500e-002	2221.893311	3.101153
 188	9.4000e-002	2168.861389	3.061748
 189	9.4500e-002	2114.868164	3.003319
 190	9.5000e-002	2067.443848	2.954401
 191	9.5500e-002	2019.538879	2.924508
 192	9.6000e-002	1964.904785	2.868796
 193	9.6500e-002	1919.082642	2.822597
 194	9.7000e-002	1869.735718	2.773000
 195	9.7500e-002	1814.941406	2.736991
 196	9.8000e-002	1767.517090	2.677883
 197	9.8500e-002	1719.291687	2.639157
 198	9.9000e-002	1663.696289	2.609263
 199	9.9500e-002	1618.034363	2.535207
 200	1.0000e-001	1568.847656	2.478137
 201	1.0050e-001	1520.942688	2.442808
 202	1.0100e-001	1473.838806	2.392532
 203	1.0150e-001	1421.127319	2.331385
 204	1.0200e-001	1368.415833	2.275674
 205	1.0250e-001	1321.632385	2.238986
 206	1.0300e-001	1272.926331	2.179877
 207	1.0350e-001	1219.734192	2.146587
 208	1.0400e-001	1178.878784	2.092234
 209	1.0450e-001	1124.885559	2.027690
 210	1.0500e-001	1072.814941	1.986246
 211	1.0550e-001	1024.269104	1.927817
 212	1.0600e-001	972.198486	1.863953
 213	1.0650e-001	923.492432	1.793974
 214	1.0700e-001	873.504639	1.736225
 215	1.0750e-001	822.395325	1.673040
 216	1.0800e-001	770.164490	1.629558
 217	1.0850e-001	723.541260	1.567732
 218	1.0900e-001	670.989990	1.484165
 219	1.0950e-001	618.278503	1.437965
 220	1.1000e-001	570.693970	1.370704
 221	1.1050e-001	521.026611	1.304801
 222	1.1100e-001	469.596863	1.254525
 223	1.1150e-001	422.813416	1.165523
 224	1.1200e-001	374.908447	1.098261
 225	1.1250e-001	325.401306	1.032359
 226	1.1300e-001	277.175903	0.946074
 227	1.1350e-001	224.784851	0.869301
 228	1.1400e-001	171.272278	0.788452
 229	1.1450e-001	125.450134	0.705564
 230	1.1500e-001	77.064514	0.616562
 231	1.1550e-001	24.513245	0.522804
 232	1.1600e-001	-24.192810	0.417496
 233	1.1650e-001	-73.860168	0.329173
 234	1.1700e-001	-126.411438	0.219109
 235	1.1750e-001	-172.393799	0.089342
 236	1.1800e-001	-222.381592	-0.026837
 237	1.1850e-001	-274.452209	-0.155924
 238	1.1900e-001	-321.876526	-0.306752
 239	1.1950e-001	-373.146057	-0.455542
 240	1.2000e-001	-425.697327	-0.624035
 241	1.2050e-001	-472.160339	-0.797964
 242	1.2100e-001	-522.789001	-0.957624
 243	1.2150e-001	-576.942444	-1.120682
 244	1.2200e-001	-623.405457	-1.281701
 245	1.2250e-001	-666.503906	-1.446797
 246	1.2300e-001	-723.381042	-1.626840
 247	1.2350e-001	-770.004272	-1.794654
 248	1.2400e-001	-821.273804	-2.004590
 249	1.2450e-001	-869.338989	-2.177839
 250	1.2500e-001	-916.122437	-2.383700
 251	1.2550e-001	-968.032837	-2.542681
 252	1.2600e-001	-1021.064758	-2.717968
 253	1.2650e-001	-1068.489075	-2.882384
 254	1.2700e-001	-1120.399475	-3.052236
 255	1.2750e-001	-1171.348572	-3.241791
 256	1.2800e-001	-1218.933105	-3.411642
 257	1.2850e-001	-1269.721985	-3.548203
 258	1.2900e-001	-1323.554993	-3.644679
 259	1.2950e-001	-1370.018005	-3.733002
 260	1.3000e-001	-1420.967102	-3.802301
 261	1.3050e-001	-1472.877502	-3.872960
 262	1.3100e-001	-1515.815735	-3.931389
 263	1.3150e-001	-1568.527222	-4.000009
 264	1.3200e-001	-1623.001099	-4.052323
 265	1.3250e-001	-1664.497375	-4.112790
 266	1.3300e-001	-1722.496033	-4.175975
 267	1.3350e-001	-1767.356873	-4.237122
 268	1.3400e-001	-1816.864014	-4.287398
 269	1.3450e-001	-1866.851807	-4.337674
 270	1.3500e-001	-1917.640686	-4.394065
 271	1.3550e-001	-1963.302612	-4.460647
 272	1.3600e-001	-2013.610840	-4.525870
 273	1.3650e-001	-2065.841675	-4.568673
 274	1.3700e-001	-2115.669250	-4.631178
 275	1.3750e-001	-2163.414001	-4.689607
 276	1.3800e-001	-2220.611572	-4.740563
 277	1.3850e-001	-2265.312195	-4.793556
 278	1.3900e-001	-2317.222595	-4.845191
 279	1.3950e-001	-2369.132996	-4.902261
 280	1.4000e-001	-2418.159485	-4.947782
 281	1.4050e-001	-2463.340759	-5.011646
 282	1.4100e-001	-2516.853333	-5.046975
 283	1.4150e-001	-2563.636780	-5.118313
 284	1.4200e-001	-2614.906311	-5.167230
 285	1.4250e-001	-2668.739319	-5.241286
 286	1.4300e-001	-2713.920593	-5.289523
 287	1.4350e-001	-2762.466431	-5.352029
 288	1.4400e-001	-2815.818787	-5.405702
 289	1.4450e-001	-2861.160278	-5.470925
 290	1.4500e-001	-2913.551331	-5.527316
 291	1.4550e-001	-2964.660645	-5.591860
 292	1.4600e-001	-3009.521484	-5.657762
 293	1.4650e-001	-3060.310364	-5.704641
 294	1.4700e-001	-3117.027283	-5.773941
 295	1.4750e-001	-3159.484863	-5.832370
 296	1.4800e-001	-3212.036133	-5.894196
 297	1.4850e-001	-3263.305664	-5.941075
 298	1.4900e-001	-3311.370850	-6.004260
 299	1.4950e-001	-3361.198425	-6.067445
 300	1.5000e-001	-3415.992737	-6.121118
 301	1.5050e-001	-3461.814880	-6.187020
 302	1.5100e-001	-3429.450989	-6.172753
 303	1.5150e-001	-3381.546021	-6.129950
 304	1.5200e-001	-3331.398010	-6.095980
 305	1.5250e-001	-3277.725220	-6.065406
 306	1.5300e-001	-3230.941772	-6.015810
 307	1.5350e-001	-3176.307678	-5.999504
 308	1.5400e-001	-3128.242493	-5.955342
 309	1.5450e-001	-3080.818176	-5.915257
 310	1.5500e-001	-3027.946472	-5.879928
 311	1.5550e-001	-2976.997375	-5.833049
 312	1.5600e-001	-2932.937622	-5.793643
 313	1.5650e-001	-2874.938965	-5.763070
 314	1.5700e-001	-2833.763123	-5.712794
 315	1.5750e-001	-2784.896851	-5.675427
 316	1.5800e-001	-2731.384277	-5.635342
 317	1.5850e-001	-2682.678223	-5.585745
 318	1.5900e-001	-2637.336731	-5.540225
 319	1.5950e-001	-2592.155457	-5.537507
 320	1.6000e-001	-2540.565491	-5.456658
 321	1.6050e-001	-2487.213135	-5.417252
 322	1.6100e-001	-2434.501648	-5.358823
 323	1.6150e-001	-2390.602112	-5.339800
 324	1.6200e-001	-2337.409973	-5.283409
 325	1.6250e-001	-2282.455444	-5.222942
 326	1.6300e-001	-2231.826782	-5.190330
 327	1.6350e-001	-2185.523987	-5.147527
 328	1.6400e-001	-2132.011414	-5.105404
 329	1.6450e-001	-2080.581665	-5.062602
 330	1.6500e-001	-2035.560608	-4.995340
 331	1.6550e-001	-1979.804993	-4.971561
 332	1.6600e-001	-1934.623718	-4.925361
 333	1.6650e-001	-1886.718750	-4.862176
 334	1.6700e-001	-1833.686829	-4.825488
 335	1.6750e-001	-1785.140991	-4.774533
 336	1.6800e-001	-1740.760803	-4.724936
 337	1.6850e-001	-1684.204102	-4.688928
 338	1.6900e-001	-1636.299133	-4.619628
 339	1.6950e-001	-1590.316772	-4.570031
 340	1.7000e-001	-1538.726807	-4.522473
 341	1.7050e-001	-1488.258362	-4.465403
 342	1.7100e-001	-1443.237305	-4.428715
 343	1.7150e-001	-1386.840820	-4.366209
 344	1.7200e-001	-1336.853027	-4.315254
 345	1.7250e-001	-1289.108276	-4.271772
 346	1.7300e-001	-1233.993530	-4.221496
 347	1.7350e-001	-1187.530518	-4.160349
 348	1.7400e-001	-1139.144897	-4.105996
 349	1.7450e-001	-1085.792542	-4.059797
 350	1.7500e-001	-1038.047791	-4.013597
 351	1.7550e-001	-989.662170	-3.952450
 352	1.7600e-001	-937.751770	-3.912365
 353	1.7650e-001	-889.846802	-3.844425
 354	1.7700e-001	-842.262268	-3.795507
 355	1.7750e-001	-785.865784	-3.730284
 356	1.7800e-001	-746.131897	-3.688161
 357	1.7850e-001	-667.625427	-3.638564
 358	1.7900e-001	-641.189575	-3.586250
 359	1.7950e-001	-593.124390	-3.524424
 360	1.8000e-001	-548.583984	-3.465316
 361	1.8050e-001	-493.789673	-3.403490
 362	1.8100e-001	-441.238403	-3.353213
 363	1.8150e-001	-396.858215	-3.294784
 364	1.8200e-001	-339.500427	-3.231600
 365	1.8250e-001	-291.595459	-3.169774
 366	1.8300e-001	-242.408752	-3.107947
 367	1.8350e-001	-190.338135	-3.067862
 368	1.8400e-001	-139.228821	-3.007395
 369	1.8450e-001	-94.047546	-2.922469
 370	1.8500e-001	-40.214539	-2.866758
 371	1.8550e-001	10.093689	-2.810367
 372	1.8600e-001	55.274963	-2.745824
 373	1.8650e-001	109.107971	-2.696227
 374	1.8700e-001	157.173157	-2.635080
 375	1.8750e-001	206.680298	-2.577331
 376	1.8800e-001	257.308960	-2.520940
 377	1.8850e-001	306.495667	-2.447564
 378	1.8900e-001	352.478027	-2.389814
 379	1.8950e-001	406.791687	-2.352447
 380	1.9000e-001	437.072754	-2.272956
 381	1.9050e-001	501.960754	-2.229474
 382	1.9100e-001	553.871155	-2.173763
 383	1.9150e-001	605.461121	-2.122128
 384	1.9200e-001	648.719788	-2.052828
 385	1.9250e-001	705.757141	-1.991002
 386	1.9300e-001	755.584717	-1.928497
 387	1.9350e-001	802.528381	-1.863953
 388	1.9400e-001	855.880737	-1.812318
 389	1.9450e-001	906.349182	-1.747775
 390	1.9500e-001	953.933716	-1.692063
 391	1.9550e-001	1006.324768	-1.630237
 392	1.9600e-001	1055.671692	-1.581320
 393	1.9650e-001	1106.140137	-1.521532
 394	1.9700e-001	1151.641846	-1.480768
 395	1.9750e-001	1203.712463	-1.410789
 396	1.9800e-001	1250.175476	-1.357795
 397	1.9850e-001	1302.406311	-1.305481
 398	1.9900e-001	1350.791931	-1.249090
 399	1.9950e-001	1394.531250	-1.189302
 400	2.0000e-001	1450.126648	-1.143102
 401	2.0050e-001	1499.794006	-1.088750
 402	2.0100e-001	1545.776367	-1.026244
 403	2.0150e-001	1599.609375	-0.997709
 404	2.0200e-001	1648.956299	-0.929089
 405	2.0250e-001	1697.181702	-0.867942
 406	2.0300e-001	1749.893188	-0.818346
 407	2.0350e-001	1798.439026	-0.747008
 408	2.0400e-001	1847.465515	-0.687900
 409	2.0450e-001	1900.337219	-0.628791
 410	2.0500e-001	1949.043274	-0.556774
 411	2.0550e-001	1997.428894	-0.526880
 412	2.0600e-001	2052.062988	-0.458939
 413	2.0650e-001	2100.448608	-0.401190
 414	2.0700e-001	2148.033142	-0.338684
 415	2.0750e-001	2200.744629	-0.278897
 416	2.0800e-001	2250.091553	-0.222506
 417	2.0850e-001	2299.278259	-0.146412
 418	2.0900e-001	2346.221924	-0.083227
 419	2.0950e-001	2398.292542	-0.017325
 420	2.1000e-001	2443.313599	0.057410
 421	2.1050e-001	2498.748779	0.128748
 422	2.1100e-001	2545.211792	0.203482
 423	2.1150e-001	2592.155457	0.294523
 424	2.1200e-001	2645.187378	0.370617
 425	2.1250e-001	2696.136475	0.425649
 426	2.1300e-001	2746.284485	0.506498
 427	2.1350e-001	2793.388367	0.583271
 428	2.1400e-001	2845.619202	0.665479
 429	2.1450e-001	2895.446777	0.757879
 430	2.1500e-001	2944.633484	0.848240
 431	2.1550e-001	2995.422363	0.956945
 432	2.1600e-001	3041.725159	1.094185
 433	2.1650e-001	3097.320557	1.219875
 434	2.1700e-001	3145.065308	1.367986
 435	2.1750e-001	3193.931580	1.499112
 436	2.1800e-001	3245.361328	1.657413
 437	2.1850e-001	3289.421082	1.787180
 438	2.1900e-001	3347.419739	1.944803
 439	2.1950e-001	3397.087097	2.094952
 440	2.2000e-001	3445.152283	2.245101
 441	2.2050e-001	3495.620728	2.381661
 442	2.2100e-001	3542.404175	2.498519
 443	2.2150e-001	3592.552185	2.609263
 444	2.2200e-001	3642.539978	2.709136
 445	2.2250e-001	3692.047119	2.786588
 446	2.2300e-001	3741.233826	2.883743
 447	2.2350e-001	3788.978577	2.982937
 448	2.2400e-001	3840.248108	3.078733
 449	2.2450e-001	3887.672424	3.133765
 450	2.2500e-001	3938.781738	3.211217
 451	2.2550e-001	3991.813660	3.277799
 452	2.2600e-001	4041.641235	3.357290
 453	2.2650e-001	4092.430115	3.429986
 454	2.2700e-001	4141.136169	3.501324
 455	2.2750e-001	4191.123962	3.563830
 456	2.2800e-001	4238.227844	3.643320
 457	2.2850e-001	4291.099548	3.711261
 458	2.2900e-001	4340.606689	3.781919
 459	2.2950e-001	4390.594482	3.871601
 460	2.3000e-001	4439.620972	3.931389
 461	2.3050e-001	4493.453979	4.010879
 462	2.3100e-001	4540.557861	4.076102
 463	2.3150e-001	4592.788696	4.149478
 464	2.3200e-001	4639.411926	4.207228
 465	2.3250e-001	4689.559937	4.281283
 466	2.3300e-001	4736.984253	4.332918
 467	2.3350e-001	4788.574219	4.400859
 468	2.3400e-001	4840.484619	4.498014
 469	2.3450e-001	4887.748718	4.549649
 470	2.3500e-001	4936.454773	4.599246
 471	2.3550e-001	4984.680176	4.673301
 472	2.3600e-001	5036.270142	4.723577
 473	2.3650e-001	5088.981628	4.792877
 474	2.3700e-001	5138.008118	4.847229
 475	2.3750e-001	5186.073303	4.881879
 476	2.3800e-001	5237.663269	4.955935
 477	2.3850e-001	5288.932800	5.008249
 478	2.3900e-001	5338.920593	5.060563
 479	2.3950e-001	5389.068604	5.129183
 480	2.4000e-001	5437.934875	5.180818
 481	2.4050e-001	5489.044189	5.227697
 482	2.4100e-001	5536.788940	5.288165
 483	2.4150e-001	5588.378906	5.343197
 484	2.4200e-001	5636.444092	5.387358
 485	2.4250e-001	5686.431885	5.430161
 486	2.4300e-001	5734.336853	5.479078
 487	2.4350e-001	5783.683777	5.513728
 488	2.4400e-001	5834.152222	5.557889
 489	2.4450e-001	5887.344360	5.617677
 490	2.4500e-001	5933.647156	5.653006
 491	2.4550e-001	5991.966248	5.703962
 492	2.4600e-001	6033.622742	5.769185
 493	2.4650e-001	6082.809448	5.808590
 494	2.4700e-001	6128.471375	5.849355
 495	2.4750e-001	6183.265686	5.918654
 496	2.4800e-001	6235.816956	5.934281
 497	2.4850e-001	6285.324097	5.977083
 498	2.4900e-001	6335.792542	6.024642
 499	2.4950e-001	6385.139465	6.054536
 500	2.5000e-001	6434.646606	6.090544
 501	2.5050e-001	6486.396790	6.151691
 502	2.5100e-001	6449.226379	6.114324
 503	2.5150e-001	6398.757935	6.101415
 504	2.5200e-001	6350.372314	6.070162
 505	2.5250e-001	6308.395386	6.051818
 506	2.5300e-001	6251.998901	6.000863
 507	2.5350e-001	6203.292847	5.984557
 508	2.5400e-001	6150.741577	5.957381
 509	2.5450e-001	6102.676392	5.924090
 510	2.5500e-001	6053.009033	5.903028
 511	2.5550e-001	6000.778198	5.853431
 512	2.5600e-001	5952.392578	5.827614
 513	2.5650e-001	5902.084351	5.794323
 514	2.5700e-001	5848.411560	5.763070
 515	2.5750e-001	5801.948547	5.736573
 516	2.5800e-001	5752.922058	5.701244
 517	2.5850e-001	5701.812744	5.665236
 518	2.5900e-001	5653.747559	5.635342
 519	2.5950e-001	5605.842590	5.614280
 520	2.6000e-001	5556.495667	5.559927
 521	2.6050e-001	5509.071350	5.536828
 522	2.6100e-001	5458.442688	5.512369
 523	2.6150e-001	5405.891418	5.473643
 524	2.6200e-001	5356.224060	5.441031
 525	2.6250e-001	5311.042786	5.420649
 526	2.6300e-001	5255.287170	5.371052
 527	2.6350e-001	5206.741333	5.333006
 528	2.6400e-001	5156.593323	5.307188
 529	2.6450e-001	5105.644226	5.270500
 530	2.6500e-001	5056.297302	5.241286
 531	2.6550e-001	5007.431030	5.206636
 532	2.6600e-001	4951.835632	5.178101
 533	2.6650e-001	4907.135010	5.133260
 534	2.6700e-001	4857.467651	5.108801
 535	2.6750e-001	4804.756165	5.056487
 536	2.6800e-001	4755.729675	5.045616
 537	2.6850e-001	4708.305359	5.005531
 538	2.6900e-001	4655.914307	4.978355
 539	2.6950e-001	4609.611511	4.932835
 540	2.7000e-001	4559.143066	4.918567
 541	2.7050e-001	4509.635925	4.873047
 542	2.7100e-001	4460.449219	4.834321
 543	2.7150e-001	4412.544250	4.798992
 544	2.7200e-001	4360.954285	4.744639
 545	2.7250e-001	4314.170837	4.709989
 546	2.7300e-001	4263.702393	4.683492
 547	2.7350e-001	4212.593079	4.650881
 548	2.7400e-001	4161.964417	4.607399
 549	2.7450e-001	4111.495972	4.570031
 550	2.7500e-001	4058.944702	4.542855
 551	2.7550e-001	4007.514954	4.499373
 552	2.7600e-001	3962.173462	4.472876
 553	2.7650e-001	3911.064148	4.420562
 554	2.7700e-001	3858.352661	4.403577
 555	2.7750e-001	3812.850952	4.356018
 556	2.7800e-001	3761.901855	4.311857
 557	2.7850e-001	3712.394714	4.276528
 558	2.7900e-001	3662.406921	4.239160
 559	2.7950e-001	3608.093262	4.183449
 560	2.8000e-001	3561.790466	4.141326
 561	2.8050e-001	3513.725281	4.114829
 562	2.8100e-001	3459.892273	4.075423
 563	2.8150e-001	3413.108826	4.038735
 564	2.8200e-001	3365.364075	4.013597
 565	2.8250e-001	3316.017151	3.976230
 566	2.8300e-001	3266.029358	3.924595
 567	2.8350e-001	3217.483521	3.900815
 568	2.8400e-001	3165.412903	3.858692
 569	2.8450e-001	3117.187500	3.824722
 570	2.8500e-001	3064.315796	3.773766
 571	2.8550e-001	3014.488220	3.737078
 572	2.8600e-001	2965.461731	3.686802
 573	2.8650e-001	2918.357849	3.656908
 574	2.8700e-001	2862.442017	3.618182
 575	2.8750e-001	2811.813354	3.580815
 576	2.8800e-001	2764.389038	3.541409
 577	2.8850e-001	2715.682983	3.495889
 578	2.8900e-001	2664.413452	3.455124
 579	2.8950e-001	2613.464355	3.407566
 580	2.9000e-001	2559.791565	3.349816
 581	2.9050e-001	2517.173767	3.324678
 582	2.9100e-001	2464.622498	3.283914
 583	2.9150e-001	2415.916443	3.244508
 584	2.9200e-001	2364.967346	3.205103
 585	2.9250e-001	2320.266724	3.156185
 586	2.9300e-001	2268.196106	3.098436
 587	2.9350e-001	2219.810486	3.069901
 588	2.9400e-001	2172.706604	3.021663
 589	2.9450e-001	2116.310120	2.976143
 590	2.9500e-001	2068.244934	2.933340
 591	2.9550e-001	2021.141052	2.889178
 592	2.9600e-001	1968.750000	2.825314
 593	2.9650e-001	1920.364380	2.783870
 594	2.9700e-001	1868.774414	2.739029
 595	2.9750e-001	1815.902710	2.699624
 596	2.9800e-001	1766.876221	2.657501
 597	2.9850e-001	1719.131470	2.607224
 598	2.9900e-001	1668.022156	2.564422
 599	2.9950e-001	1619.316101	2.510749
 600	3.0000e-001	1570.129395	2.472022
 601	3.0050e-001	1518.699646	2.423785
 602	3.0100e-001	1469.352722	2.373508
 603	3.0150e-001	1420.005798	2.332065
 604	3.0200e-001	1371.139526	2.267521
 605	3.0250e-001	1321.952820	2.204336
 606	3.0300e-001	1273.406982	2.169007
 607	3.0350e-001	1222.457886	2.108540
 608	3.0400e-001	1170.066833	2.055546
 609	3.0450e-001	1125.366211	2.007308
 610	3.0500e-001	1074.096680	1.941406
 611	3.0550e-001	1023.307800	1.899962
 612	3.0600e-001	974.121094	1.837456
 613	3.0650e-001	923.812866	1.787860
 614	3.0700e-001	872.703552	1.728751
 615	3.0750e-001	822.715759	1.679834
 616	3.0800e-001	767.440796	1.606458
 617	3.0850e-001	711.044312	1.572488
 618	3.0900e-001	672.592163	1.507944
 619	3.0950e-001	621.322632	1.436606
 620	3.1000e-001	570.693970	1.374101
 621	3.1050e-001	522.789001	1.310916
 622	3.1100e-001	470.878601	1.230746
 623	3.1150e-001	423.614502	1.174355
 624	3.1200e-001	374.588013	1.104376
 625	3.1250e-001	326.042175	1.028962
 626	3.1300e-001	276.535034	0.968495
 627	3.1350e-001	228.630066	0.893760
 628	3.1400e-001	175.437927	0.819025
 629	3.1450e-001	128.654480	0.750405
 630	3.1500e-001	79.307556	0.666838
 631	3.1550e-001	27.397156	0.573759
 632	3.1600e-001	-20.988464	0.480001
 633	3.1650e-001	-70.976257	0.389640
 634	3.1700e-001	-123.207092	0.289767
 635	3.1750e-001	-171.112061	0.176986
 636	3.1800e-001	-221.099854	0.059448
 637	3.1850e-001	-272.529602	-0.056730
 638	3.1900e-001	-322.677612	-0.189894
 639	3.1950e-001	-371.543884	-0.327134
 640	3.2000e-001	-424.415588	-0.475245
 641	3.2050e-001	-474.403381	-0.637624
 642	3.2100e-001	-522.308350	-0.782337
 643	3.2150e-001	-573.577881	-0.948113
 644	3.2200e-001	-624.687195	-1.104376
 645	3.2250e-001	-669.227600	-1.274907
 646	3.2300e-001	-722.259521	-1.447477
 647	3.2350e-001	-770.645142	-1.598984
 648	3.2400e-001	-819.030762	-1.789898
 649	3.2450e-001	-868.698120	-1.967902
 650	3.2500e-001	-920.768738	-2.145907
 651	3.2550e-001	-966.911316	-2.340897
 652	3.2600e-001	-1019.783020	-2.523657
 653	3.2650e-001	-1068.489075	-2.697586
 654	3.2700e-001	-1122.482300	-2.885781
 655	3.2750e-001	-1168.785095	-3.047480
 656	3.2800e-001	-1220.855713	-3.232279
 657	3.2850e-001	-1266.838074	-3.410284
 658	3.2900e-001	-1319.068909	-3.559753
 659	3.2950e-001	-1369.697571	-3.693596
 660	3.3000e-001	-1421.928406	-3.773766
 661	3.3050e-001	-1469.352722	-3.861410
 662	3.3100e-001	-1521.903992	-3.940900
 663	3.3150e-001	-1569.808960	-3.996612
 664	3.3200e-001	-1618.354797	-4.058438
 665	3.3250e-001	-1668.342590	-4.120264
 666	3.3300e-001	-1718.650818	-4.182090
 667	3.3350e-001	-1765.113831	-4.235763
 668	3.3400e-001	-1817.825317	-4.284680
 669	3.3450e-001	-1864.608765	-4.349904
 670	3.3500e-001	-1914.276123	-4.407653
 671	3.3550e-001	-1965.385437	-4.478311
 672	3.3600e-001	-2014.572144	-4.522473
 673	3.3650e-001	-2062.156677	-4.580223
 674	3.3700e-001	-2115.829468	-4.642049
 675	3.3750e-001	-2164.054871	-4.690966
 676	3.3800e-001	-2215.644836	-4.750074
 677	3.3850e-001	-2266.273499	-4.806465
 678	3.3900e-001	-2317.863464	-4.867612
 679	3.3950e-001	-2368.011475	-4.924002
 680	3.4000e-001	-2416.557312	-4.988546
 681	3.4050e-001	-2464.942932	-5.026593
 682	3.4100e-001	-2515.090942	-5.076190
 683	3.4150e-001	-2565.238953	-5.130542
 684	3.4200e-001	-2616.989136	-5.192368
 685	3.4250e-001	-2663.291931	-5.232453
 686	3.4300e-001	-2714.561462	-5.312623
 687	3.4350e-001	-2762.145996	-5.341838
 688	3.4400e-001	-2813.896179	-5.406381
 689	3.4450e-001	-2860.359192	-5.463452
 690	3.4500e-001	-2912.590027	-5.515087
 691	3.4550e-001	-2963.378906	-5.586424
 692	3.4600e-001	-3012.725830	-5.624471
 693	3.4650e-001	-3059.669495	-5.684938
 694	3.4700e-001	-3110.458374	-5.747444
 695	3.4750e-001	-3160.125732	-5.801117
 696	3.4800e-001	-3211.715698	-5.870416
 697	3.4850e-001	-3260.742188	-5.912540
 698	3.4900e-001	-3312.973022	-5.968251
 699	3.4950e-001	-3363.121033	-6.046383
 700	3.5000e-001	-3414.710999	-6.100056
 701	3.5050e-001	-3462.776184	-6.151691
 702	3.5100e-001	-3430.091858	-6.140820
 703	3.5150e-001	-3378.982544	-6.112285
 704	3.5200e-001	-3328.994751	-6.071521
 705	3.5250e-001	-3275.642395	-6.030077
 706	3.5300e-001	-3228.378296	-5.990672
 707	3.5350e-001	-3180.152893	-5.951945
 708	3.5400e-001	-3131.607056	-5.909143
 709	3.5450e-001	-3081.459045	-5.884684
 710	3.5500e-001	-3029.228210	-5.855470
 711	3.5550e-001	-2977.317810	-5.820820
 712	3.5600e-001	-2928.291321	-5.776658
 713	3.5650e-001	-2876.541138	-5.737932
 714	3.5700e-001	-2831.199646	-5.674747
 715	3.5750e-001	-2779.449463	-5.638739
 716	3.5800e-001	-2732.505798	-5.596615
 717	3.5850e-001	-2685.401917	-5.553813
 718	3.5900e-001	-2634.933472	-5.502178
 719	3.5950e-001	-2583.984375	-5.466169
 720	3.6000e-001	-2536.880493	-5.407740
 721	3.6050e-001	-2480.163574	-5.376488
 722	3.6100e-001	-2435.462952	-5.330967
 723	3.6150e-001	-2386.116028	-5.290203
 724	3.6200e-001	-2335.487366	-5.258950
 725	3.6250e-001	-2283.737183	-5.201201
 726	3.6300e-001	-2235.832214	-5.174704
 727	3.6350e-001	-2184.082031	-5.111519
 728	3.6400e-001	-2131.050110	-5.078228
 729	3.6450e-001	-2080.261230	-5.032708
 730	3.6500e-001	-2034.278870	-4.971561
 731	3.6550e-001	-1982.688904	-4.921964
 732	3.6600e-001	-1932.701111	-4.881200
 733	3.6650e-001	-1884.956360	-4.825488
 734	3.6700e-001	-1834.808350	-4.782006
 735	3.6750e-001	-1786.582947	-4.745318
 736	3.6800e-001	-1737.556458	-4.685531
 737	3.6850e-001	-1686.447144	-4.636613
 738	3.6900e-001	-1640.144348	-4.590414
 739	3.6950e-001	-1588.554382	-4.546252
 740	3.7000e-001	-1540.168762	-4.490541
 741	3.7050e-001	-1487.937927	-4.440265
 742	3.7100e-001	-1437.629700	-4.406294
 743	3.7150e-001	-1387.802124	-4.315933
 744	3.7200e-001	-1339.736938	-4.288077
 745	3.7250e-001	-1287.025452	-4.216060
 746	3.7300e-001	-1240.882874	-4.188205
 747	3.7350e-001	-1190.414429	-4.129776
 748	3.7400e-001	-1140.907288	-4.090370
 749	3.7450e-001	-1086.593628	-4.024468
 750	3.7500e-001	-1040.130615	-3.970115
 751	3.7550e-001	-986.778259	-3.883830
 752	3.7600e-001	-939.994812	-3.859372
 753	3.7650e-001	-884.880066	-3.814531
 754	3.7700e-001	-837.135315	-3.748628
 755	3.7750e-001	-787.307739	-3.681367
 756	3.7800e-001	-739.562988	-3.646717
 757	3.7850e-001	-688.453674	-3.580815
 758	3.7900e-001	-638.465881	-3.531897
 759	3.7950e-001	-592.483521	-3.475507
 760	3.8000e-001	-545.219421	-3.406887
 761	3.8050e-001	-488.342285	-3.357969
 762	3.8100e-001	-443.000793	-3.296143
 763	3.8150e-001	-393.493652	-3.223447
 764	3.8200e-001	-344.306946	-3.165018
 765	3.8250e-001	-286.788940	-3.113383
 766	3.8300e-001	-240.966797	-3.056992
 767	3.8350e-001	-191.139221	-2.991769
 768	3.8400e-001	-142.433167	-2.933340
 769	3.8450e-001	-88.279724	-2.878987
 770	3.8500e-001	-42.297363	-2.819199
 771	3.8550e-001	6.088257	-2.766206
 772	3.8600e-001	57.197571	-2.711174
 773	3.8650e-001	107.185364	-2.648668
 774	3.8700e-001	157.653809	-2.582086
 775	3.8750e-001	206.840515	-2.527734
 776	3.8800e-001	256.347656	-2.448243
 777	3.8850e-001	308.258057	-2.386417
 778	3.8900e-001	353.279114	-2.321194
 779	3.8950e-001	409.515381	-2.280430
 780	3.9000e-001	453.735352	-2.237627
 781	3.9050e-001	504.364014	-2.145907
 782	3.9100e-001	551.467896	-2.094272
 783	3.9150e-001	602.096558	-2.040599
 784	3.9200e-001	649.841309	-1.984888
 785	3.9250e-001	700.309753	-1.933253
 786	3.9300e-001	752.540588	-1.882297
 787	3.9350e-001	803.649902	-1.830662
 788	3.9400e-001	854.759216	-1.761363
 789	3.9450e-001	901.542664	-1.710407
 790	3.9500e-001	952.011108	-1.634314
 791	3.9550e-001	1005.363464	-1.570449
 792	3.9600e-001	1054.870605	-1.533761
 793	3.9650e-001	1106.300354	-1.461065
 794	3.9700e-001	1151.802063	-1.410789
 795	3.9750e-001	1204.994202	-1.354398
 796	3.9800e-001	1252.258301	-1.291892
 797	3.9850e-001	1303.367615	-1.228028
 798	3.9900e-001	1351.272583	-1.195417
 799	3.9950e-001	1403.823853	-1.137667
 800	4.0000e-001	1449.485779	-1.088070
 801	4.0050e-001	1502.197266	-1.026244

Center data before PMax,±Pr and ±Vc Calc.

PMax (µC/cm2):	6.15e+000
Pr (µC/cm2):	5.21e-001
-Pr (µC/cm2):	-1.03e+000
Vc:	2.41e+001
-Vc:	-2.47e+000
C (Max-Eff) (nF):	7.63e-003
K (Eff):	1.39e+001
Vert. (±Pr) Shift (µC/cm2):	-2.53e-001
Horiz. Shift (±Vc):	1.08e+001
Offset (µC/cm2):	1.17e+000

A (Loop Area - µC/cm2·Volts):	1.70e+002



Hysteresis Version: 5.16.2 - Radiant Technologies, Inc., 1999 - 3/20/18

