»»»»»»»»»»»»»»»»»»»»»»»»»»»»»»»»»»»» I/V «««««««««««««««««««««««««««««««««««
»»»  Executed Version:	5.16.2
»»»  Vision Version:	5.16.10 (R)
»»»	 Vision Compiled:	4/26/18
»»»  Driver Version:	5.16.6
»»»  Windows Version:	Windows 8
»»»  Processor Information:	x86 (AMD or Intel) - 8 Processors
»»»  Tester Name:	PPM21016-863
»»»  Tester S/N:	PPM21016-863
»»»  Internal Amp Type:	 RTI ML200V    
»»»  Internal Amp Serial:	 iAB2-0000     
»»»  Execution Count:	1
»»»»»»»»»»»»»»»»»»»»»»»»»»»»»»»»»»»»»»««««««««««««««««««««««««««««««««««««««

Stored:	5/16/2018 - 9:17:57
Configured:	05/16/18 08:59:02 AM
Executed:	05/16/18 09:00:02 AM

»»»»»»»»»»»»»»»»»»»»»»»»»»»»»»» Sample Info ««««««««««««««««««««««««««««««««
Sample Name:	Internal Reference Cap.
Lot Name:	N/A
Wafer Name:	N/A
Die Row/Column:	0/0
Capacitor Number:	0
Sample Area (cm2):	7.85e-005
Sample Thickness (µm):	1.00e-001
Mux Loop Adjustment:	Disabled

Amplifier:	Internal

»»»»»»»»»»»»»»»»»»»»»»»»»»»»»»»»»»» Tester Info «««««««««««««««««««««««««««««««««««
Tester Name:	PPM21016-863
Tester Serial Number:	PPM21016-863
Return Signal Amp. Level:	190.0 [Index: 0]

»»»»»»»»»»»»»»»»»»»»»»»»»»»»»»»» I/V Info ««««««««««««««««««««««««««««««««««
Task Name:	I/V-2
Max Volts:	3.00
Soak Time (ms):	100.00
Measure Time (ms):	100.00
Step Delay (ms):	0
Preset Pulse Volts:	3.00
Preset Pulse Width (ms):	0.40
Profile:	Unswitched Triangular
Plot:	ERROR - Unknown Plot Parameter

»»»»»»»»»»»»»»»»»»»»»»»»»»»»»»»»»»» Data «««««««««««««««««««««««««««««««««««
Points:	98

Valid Data

Point	Field (kV/cm)	Current (Amps)	Resistance (Ohms)	Resistivity (Ohms·cm)
     1	0.000000	1.591367001568e-012	7.67078e+008	6.02463e+009
     2	12.500000	2.899570400501e-009	4.27573e+007	3.35815e+008
     3	25.000000	6.033521608160e-009	4.08813e+007	3.21082e+008
     4	37.500000	1.011603012095e-008	3.65404e+007	2.86989e+008
     5	50.000000	1.566539553623e-008	3.18123e+007	2.49854e+008
     6	62.500000	2.002075286051e-008	3.12633e+007	2.45542e+008
     7	75.000000	2.506452872165e-008	2.98211e+007	2.34215e+008
     8	87.500000	3.503330356580e-008	2.49484e+007	1.95944e+008
     9	100.000000	3.953489260504e-008	2.52706e+007	1.98475e+008
    10	112.500000	4.683999843683e-008	2.40072e+007	1.88552e+008
    11	125.000000	5.653136122891e-008	2.21157e+007	1.73696e+008
    12	137.500000	6.492352504565e-008	2.12382e+007	1.66805e+008
    13	150.000000	7.478819589211e-008	2.00324e+007	1.57334e+008
    14	162.500000	8.719692467467e-008	1.86507e+007	1.46482e+008
    15	175.000000	9.784067741138e-008	1.78936e+007	1.40536e+008
    16	187.500000	1.146680906216e-007	1.63429e+007	1.28357e+008
    17	200.000000	1.288806755839e-007	1.55227e+007	1.21916e+008
    18	212.500000	1.458368852125e-007	1.45675e+007	1.14413e+008
    19	225.000000	1.529455089584e-007	1.47130e+007	1.15556e+008
    20	237.500000	1.766614561306e-007	1.34371e+007	1.05535e+008
    21	250.000000	1.913151918934e-007	1.30670e+007	1.02629e+008
    22	262.500000	2.186312318163e-007	1.19837e+007	9.41200e+007
    23	275.000000	2.318901883420e-007	1.18549e+007	9.31080e+007
    24	287.500000	2.926633709790e-007	9.82222e+006	7.71437e+007
    25	300.000000	2.961410875020e-007	1.01237e+007	7.95116e+007
    26	287.500000	2.918251221311e-007	9.85095e+006	7.73694e+007
    27	275.000000	2.419259415852e-007	1.13710e+007	8.93075e+007
    28	262.500000	2.219457566624e-007	1.18415e+007	9.30033e+007
    29	250.000000	2.053976765495e-007	1.21971e+007	9.57963e+007
    30	237.500000	1.884095397130e-007	1.26037e+007	9.89891e+007
    31	225.000000	1.568131542045e-007	1.43676e+007	1.12844e+008
    32	212.500000	1.456460476041e-007	1.45835e+007	1.14539e+008
    33	200.000000	1.263374066017e-007	1.58274e+007	1.24308e+008
    34	187.500000	1.174323718743e-007	1.59777e+007	1.25489e+008
    35	175.000000	9.686857002365e-008	1.80637e+007	1.41872e+008
    36	162.500000	9.292797811775e-008	1.74849e+007	1.37326e+008
    37	150.000000	7.813114974815e-008	1.91860e+007	1.50687e+008
    38	137.500000	7.118956349592e-008	1.93110e+007	1.51668e+008
    39	125.000000	6.085482518903e-008	2.05181e+007	1.61149e+008
    40	112.500000	5.116274290425e-008	2.19833e+007	1.72657e+008
    41	100.000000	4.227510835987e-008	2.36614e+007	1.85837e+008
    42	87.500000	3.509183301972e-008	2.49002e+007	1.95566e+008
    43	75.000000	2.791866857118e-008	2.68763e+007	2.11087e+008
    44	62.500000	2.096094997269e-008	2.98028e+007	2.34071e+008
    45	50.000000	1.672214175122e-008	2.99114e+007	2.34924e+008
    46	37.500000	1.080737207342e-008	3.46830e+007	2.72400e+008
    47	25.000000	6.659352079795e-009	3.76122e+007	2.95406e+008
    48	12.500000	2.974233576104e-009	4.22482e+007	3.31818e+008
    49	0.000000	1.769413266931e-012	4.31182e+008	3.38650e+009
    50	0.000000	4.600106010418e-012	4.47802e+008	3.51704e+009
    51	-12.500000	2.721495510097e-009	4.60316e+007	3.61532e+008
    52	-25.000000	6.219459850774e-009	4.03829e+007	3.17167e+008
    53	-37.500000	9.881492542526e-009	3.77397e+007	2.96408e+008
    54	-50.000000	1.251124720044e-008	3.99604e+007	3.13849e+008
    55	-62.500000	2.244009888207e-008	2.76649e+007	2.17280e+008
    56	-75.000000	2.983282221839e-008	2.51698e+007	1.97683e+008
    57	-87.500000	3.732495914651e-008	2.34677e+007	1.84315e+008
    58	-100.000000	4.999949664663e-008	2.00106e+007	1.57163e+008
    59	-112.500000	5.987681304043e-008	1.87050e+007	1.46909e+008
    60	-125.000000	7.427556431519e-008	1.68333e+007	1.32209e+008
    61	-137.500000	9.695342848435e-008	1.41841e+007	1.11402e+008
    62	-150.000000	1.312585420821e-007	1.14297e+007	8.97688e+007
    63	-162.500000	1.543648915556e-007	1.05239e+007	8.26550e+007
    64	-175.000000	1.864761082244e-007	9.38147e+006	7.36821e+007
    65	-187.500000	1.937638699716e-007	9.67830e+006	7.60134e+007
    66	-200.000000	2.539525519194e-007	7.88648e+006	6.19404e+007
    67	-212.500000	2.753202132076e-007	7.71474e+006	6.05916e+007
    68	-225.000000	3.304183298380e-007	6.80950e+006	5.34818e+007
    69	-237.500000	3.674218588195e-007	6.46446e+006	5.07719e+007
    70	-250.000000	4.149628794251e-007	6.02280e+006	4.73030e+007
    71	-262.500000	4.560064655317e-007	5.75877e+006	4.52294e+007
    72	-275.000000	5.152516465489e-007	5.33560e+006	4.19058e+007
    73	-287.500000	6.003205999037e-007	4.78921e+006	3.76145e+007
    74	-300.000000	6.738978053032e-007	4.44983e+006	3.49490e+007
    75	-287.500000	5.550667638941e-007	5.18132e+006	4.06941e+007
    76	-275.000000	5.303312499377e-007	5.18590e+006	4.07300e+007
    77	-262.500000	4.783331649555e-007	5.49412e+006	4.31508e+007
    78	-250.000000	4.345636330638e-007	5.75079e+006	4.51667e+007
    79	-237.500000	3.834921401458e-007	6.18640e+006	4.85880e+007
    80	-225.000000	3.444915304661e-007	6.53575e+006	5.13318e+007
    81	-212.500000	2.884689076618e-007	7.36124e+006	5.78152e+007
    82	-200.000000	2.738737337458e-007	7.29667e+006	5.73081e+007
    83	-187.500000	2.346190071614e-007	8.01249e+006	6.29301e+007
    84	-175.000000	1.911471390541e-007	9.14823e+006	7.18502e+007
    85	-162.500000	1.546371486506e-007	1.05148e+007	8.25831e+007
    86	-150.000000	1.287622208714e-007	1.16495e+007	9.14952e+007
    87	-137.500000	1.083520533233e-007	1.26807e+007	9.95941e+007
    88	-125.000000	8.693897018565e-008	1.44051e+007	1.13138e+008
    89	-112.500000	6.628717478662e-008	1.69698e+007	1.33281e+008
    90	-100.000000	5.064701481868e-008	1.97442e+007	1.55071e+008
    91	-87.500000	3.802588918245e-008	2.30271e+007	1.80855e+008
    92	-75.000000	2.937478453293e-008	2.55233e+007	2.00460e+008
    93	-62.500000	1.800938081318e-008	3.46830e+007	2.72400e+008
    94	-50.000000	1.393156484249e-008	3.58700e+007	2.81723e+008
    95	-37.500000	8.370438792183e-009	4.47349e+007	3.51348e+008
    96	-25.000000	3.981484943751e-009	6.29478e+007	4.94392e+008
    97	-12.500000	1.634617046527e-009	7.54717e+007	5.92755e+008
    98	0.000000	6.812906659435e-012	3.35953e+007	2.63858e+008



I/V Version: 5.16.2 - Radiant Technologies, Inc., 2001 - 3/16/18

