»»»»»»»»»»»»»»»»»»»»»»»»»»»»»»»»»»»» Hysteresis ««««««««««««««««««««««««««««««««««««
»»»  Executed Version:	5.16.2
»»»  Vision Version:	5.16.10 (R)
»»»  Vision Compiled:	4/26/18
»»»  Driver Version:	5.16.6
»»»  Windows Version:	Windows 8
»»»  Processor Information:	x86 (AMD or Intel) - 8 Processors
»»»  Tester Name:	PPM21016-863
»»»  Tester S/N:	PPM21016-863
»»»  Internal Amp Type:	 RTI ML200V    
»»»  Internal Amp S/N:	 iAB2-0000     
»»»  Execution Count:	1
»»»»»»»»»»»»»»»»»»»»»»»»»»»»»»»»»»»»»»»»»»««««««««««««««««««««««««««««««««««««««««««

Stored:	6/4/2018 - 11:32:51
Configured:	06/03/18 07:31:29 PM
Executed:	06/04/18 11:32:19 AM

»»»»»»»»»»»»»»»»»»»»»»»»»»»»»»»»»»» Sample Info ««««««««««««««««««««««««««««««««««««
Sample Name:	Internal Reference Cap.
Lot Name:	N/A
Wafer Name:	N/A
Die Row/Column:	0/0
Capacitor Number:	0
Sample Area (cm2):	6.20e-005
Sample Thickness (µm):	1.00e-001

Mux Loop Adjustment:	Disabled

Amplifier:	Internal

»»»»»»»»»»»»»»»»»»»»»»»»»»»»»»»»»»» Tester Info «««««««««««««««««««««««««««««««««««
Tester Name:	PPM21016-863
Tester Serial Number:	PPM21016-863
Return Signal Amp. Level:	2.0 [Index: 0]

»»»»»»»»»»»»»»»»»»»»»»»»»»»»»»»» Hysteresis Info ««««««««««««««««««««««««««««««««««
Task Name:	Hyst-1
Volts:	70.00
Field:	7000.00 (kV/cm)
Hysteresis Period (ms):	4.00e-001
Preset:	Enabled
Preset Delay (ms):	1.00e+003
Profile:	Double Bipolar

»»»»»»»»»»»»»»»»»»»»»»»»»»»»»»»»»»»»»» Data «««««««««««««««««««««««««««««««««««««««
Points:	801

Valid Data

Point	Time (ms)	Field (kV/cm)	Measured Polarization
   1	5.0000e-004	2.243042	-0.481700
   2	1.0000e-003	65.849304	-0.452485
   3	1.5000e-003	134.902954	-0.426668
   4	2.0000e-003	204.917908	-0.392697
   5	2.5000e-003	272.369385	-0.360086
   6	3.0000e-003	341.903687	-0.332230
   7	3.5000e-003	410.156250	-0.281954
   8	4.0000e-003	480.331421	-0.274480
   9	4.5000e-003	559.638977	-0.239151
  10	5.0000e-003	622.924805	-0.202463
  11	5.5000e-003	692.298889	-0.171890
  12	6.0000e-003	759.590149	-0.148111
  13	6.5000e-003	827.842712	-0.114820
  14	7.0000e-003	897.857666	-0.094438
  15	7.5000e-003	967.391968	-0.069300
  16	8.0000e-003	1038.208008	-0.034650
  17	8.5000e-003	1110.466003	0.006794
  18	9.0000e-003	1181.282043	0.029894
  19	9.5000e-003	1249.053955	0.076094
  20	1.0000e-002	1316.505432	0.118896
  21	1.0500e-002	1389.884949	0.129767
  22	1.1000e-002	1455.574036	0.165096
  23	1.1500e-002	1527.671814	0.198387
  24	1.2000e-002	1597.686768	0.222166
  25	1.2500e-002	1668.342590	0.266328
  26	1.3000e-002	1736.755371	0.296221
  27	1.3500e-002	1808.372498	0.331551
  28	1.4000e-002	1874.702454	0.369597
  29	1.4500e-002	1944.396973	0.396094
  30	1.5000e-002	2012.008667	0.428706
  31	1.5500e-002	2084.587097	0.442973
  32	1.6000e-002	2150.596619	0.473547
  33	1.6500e-002	2226.379395	0.513632
  34	1.7000e-002	2296.234131	0.559831
  35	1.7500e-002	2363.685608	0.601275
  36	1.8000e-002	2432.418823	0.635925
  37	1.8500e-002	2501.792908	0.670575
  38	1.9000e-002	2567.481995	0.703186
  39	1.9500e-002	2644.386292	0.724927
  40	2.0000e-002	2713.119507	0.754821
  41	2.0500e-002	2783.935547	0.802380
  42	2.1000e-002	2851.226807	0.828877
  43	2.1500e-002	2923.004150	0.868282
  44	2.2000e-002	2990.936279	0.900214
  45	2.2500e-002	3061.592102	0.921955
  46	2.3000e-002	3122.634888	0.940979
  47	2.3500e-002	3192.008972	0.998728
  48	2.4000e-002	3267.471313	1.033378
  49	2.4500e-002	3340.370178	1.055119
  50	2.5000e-002	3410.545349	1.097922
  51	2.5500e-002	3479.438782	1.136648
  52	2.6000e-002	3550.254822	1.178092
  53	2.6500e-002	3620.429993	1.227009
  54	2.7000e-002	3688.842773	1.267774
  55	2.7500e-002	3759.338379	1.303103
  56	2.8000e-002	3824.707031	1.354738
  57	2.8500e-002	3894.721985	1.394143
  58	2.9000e-002	3966.659546	1.430152
  59	2.9500e-002	4037.956238	1.469557
  60	3.0000e-002	4108.772278	1.487901
  61	3.0500e-002	4178.627014	1.544292
  62	3.1000e-002	4248.321533	1.585057
  63	3.1500e-002	4317.695618	1.650280
  64	3.2000e-002	4385.307312	1.690365
  65	3.2500e-002	4458.526611	1.748794
  66	3.3000e-002	4520.050049	1.805184
  67	3.3500e-002	4592.788696	1.842552
  68	3.4000e-002	4661.361694	1.881957
  69	3.4500e-002	4735.542297	1.943784
  70	3.5000e-002	4805.236816	2.006968
  71	3.5500e-002	4873.329163	2.070833
  72	3.6000e-002	4942.543030	2.128582
  73	3.6500e-002	5013.679504	2.184294
  74	3.7000e-002	5081.611633	2.254952
  75	3.7500e-002	5149.383545	2.320175
  76	3.8000e-002	5219.558716	2.385398
  77	3.8500e-002	5290.695190	2.471003
  78	3.9000e-002	5361.190796	2.554570
  79	3.9500e-002	5432.807922	2.649687
  80	4.0000e-002	5500.740051	2.761110
  81	4.0500e-002	5570.915222	2.850792
  82	4.1000e-002	5641.410828	2.971726
  83	4.1500e-002	5709.022522	3.096058
  84	4.2000e-002	5774.711609	3.233977
  85	4.2500e-002	5849.533081	3.358988
  86	4.3000e-002	5915.542603	3.483999
  87	4.3500e-002	5989.562988	3.624637
  88	4.4000e-002	6061.180115	3.757800
  89	4.4500e-002	6128.952026	3.896399
  90	4.5000e-002	6198.966980	4.030922
  91	4.5500e-002	6269.142151	4.151177
  92	4.6000e-002	6334.831238	4.283661
  93	4.6500e-002	6404.846191	4.403237
  94	4.7000e-002	6473.258972	4.527568
  95	4.7500e-002	6543.113708	4.635594
  96	4.8000e-002	6613.609314	4.751773
  97	4.8500e-002	6687.950134	4.856401
  98	4.9000e-002	6754.280090	4.957633
  99	4.9500e-002	6829.902649	5.061582
 100	5.0000e-002	6898.475647	5.160776
 101	5.0500e-002	6963.203430	5.265405
 102	5.1000e-002	6910.652161	5.281710
 103	5.1500e-002	6843.681335	5.276954
 104	5.2000e-002	6773.666382	5.253175
 105	5.2500e-002	6709.899902	5.231434
 106	5.3000e-002	6634.757996	5.205617
 107	5.3500e-002	6570.510864	5.167570
 108	5.4000e-002	6500.656128	5.144470
 109	5.4500e-002	6431.442261	5.128844
 110	5.5000e-002	6362.068176	5.097591
 111	5.5500e-002	6291.572571	5.060903
 112	5.6000e-002	6222.038269	5.043918
 113	5.6500e-002	6149.459839	5.014703
 114	5.7000e-002	6081.047058	4.964427
 115	5.7500e-002	6012.313843	4.948121
 116	5.8000e-002	5942.459106	4.894448
 117	5.8500e-002	5874.206543	4.859799
 118	5.9000e-002	5805.633545	4.836699
 119	5.9500e-002	5734.016418	4.801370
 120	6.0000e-002	5665.924072	4.759246
 121	6.0500e-002	5603.759766	4.743620
 122	6.1000e-002	5525.733948	4.687229
 123	6.1500e-002	5454.116821	4.649182
 124	6.2000e-002	5382.019043	4.629480
 125	6.2500e-002	5314.407349	4.600944
 126	6.3000e-002	5245.513916	4.550668
 127	6.3500e-002	5176.780701	4.503789
 128	6.4000e-002	5107.406616	4.475254
 129	6.4500e-002	5041.877747	4.444001
 130	6.5000e-002	4970.420837	4.384214
 131	6.5500e-002	4895.759583	4.364511
 132	6.6000e-002	4827.507019	4.320349
 133	6.6500e-002	4760.215759	4.296570
 134	6.7000e-002	4686.355591	4.266676
 135	6.7500e-002	4616.821289	4.202133
 136	6.8000e-002	4550.170898	4.171559
 137	6.8500e-002	4480.636597	4.125360
 138	6.9000e-002	4411.262512	4.078480
 139	6.9500e-002	4343.330383	4.046548
 140	7.0000e-002	4269.470215	4.016654
 141	7.0500e-002	4204.261780	3.974531
 142	7.1000e-002	4131.843567	3.927652
 143	7.1500e-002	4060.386658	3.897079
 144	7.2000e-002	3991.333008	3.846123
 145	7.2500e-002	3921.157837	3.800603
 146	7.3000e-002	3848.739624	3.778183
 147	7.3500e-002	3780.967712	3.717715
 148	7.4000e-002	3713.516235	3.679668
 149	7.4500e-002	3645.423889	3.645698
 150	7.5000e-002	3574.768066	3.587269
 151	7.5500e-002	3506.034851	3.549222
 152	7.6000e-002	3433.135986	3.507779
 153	7.6500e-002	3366.325378	3.453426
 154	7.7000e-002	3292.785645	3.418776
 155	7.7500e-002	3221.649170	3.377332
 156	7.8000e-002	3154.518127	3.318224
 157	7.8500e-002	3087.547302	3.271345
 158	7.9000e-002	3014.968872	3.239413
 159	7.9500e-002	2949.119568	3.190495
 160	8.0000e-002	2876.541138	3.147693
 161	8.0500e-002	2807.167053	3.101493
 162	8.1000e-002	2737.472534	3.043064
 163	8.1500e-002	2665.054321	3.007735
 164	8.2000e-002	2594.238281	2.943191
 165	8.2500e-002	2524.063110	2.892236
 166	8.3000e-002	2457.252502	2.839242
 167	8.3500e-002	2388.038635	2.793722
 168	8.4000e-002	2318.183899	2.740728
 169	8.4500e-002	2253.295898	2.688414
 170	8.5000e-002	2178.634644	2.649687
 171	8.5500e-002	2107.978821	2.589900
 172	8.6000e-002	2040.527344	2.534868
 173	8.6500e-002	1965.866089	2.488668
 174	8.7000e-002	1895.690918	2.417330
 175	8.7500e-002	1829.521179	2.361619
 176	8.8000e-002	1757.263184	2.292319
 177	8.8500e-002	1693.496704	2.230493
 178	8.9000e-002	1623.321533	2.176141
 179	8.9500e-002	1548.980713	2.117032
 180	9.0000e-002	1481.208801	2.033465
 181	9.0500e-002	1414.237976	1.958730
 182	9.1000e-002	1337.814331	1.911172
 183	9.1500e-002	1272.605896	1.837796
 184	9.2000e-002	1200.187683	1.771214
 185	9.2500e-002	1132.736206	1.698518
 186	9.3000e-002	1059.356689	1.661150
 187	9.3500e-002	996.231079	1.541575
 188	9.4000e-002	922.531128	1.466160
 189	9.4500e-002	855.560303	1.391426
 190	9.5000e-002	785.385132	1.308538
 191	9.5500e-002	713.607788	1.234483
 192	9.6000e-002	643.432617	1.138686
 193	9.6500e-002	571.975708	1.080257
 194	9.7000e-002	501.960754	0.974270
 195	9.7500e-002	428.100586	0.884588
 196	9.8000e-002	365.615845	0.776562
 197	9.8500e-002	292.556763	0.724248
 198	9.9000e-002	224.464417	0.622337
 199	9.9500e-002	156.372070	0.544205
 200	1.0000e-001	83.152771	0.457241
 201	1.0050e-001	19.226074	0.368239
 202	1.0100e-001	-53.031921	0.288748
 203	1.0150e-001	-126.731873	0.233716
 204	1.0200e-001	-195.144653	0.150149
 205	1.0250e-001	-264.198303	0.092399
 206	1.0300e-001	-334.854126	0.016985
 207	1.0350e-001	-399.581909	-0.059108
 208	1.0400e-001	-471.839905	-0.122293
 209	1.0450e-001	-539.291382	-0.171890
 210	1.0500e-001	-611.709595	-0.204502
 211	1.0550e-001	-679.962158	-0.257495
 212	1.0600e-001	-752.380371	-0.305733
 213	1.0650e-001	-819.671631	-0.358727
 214	1.0700e-001	-891.128540	-0.404927
 215	1.0750e-001	-960.983276	-0.444332
 216	1.0800e-001	-1032.760620	-0.487814
 217	1.0850e-001	-1100.692749	-0.527220
 218	1.0900e-001	-1170.066833	-0.561870
 219	1.0950e-001	-1234.313965	-0.605352
 220	1.1000e-001	-1307.853699	-0.640001
 221	1.1050e-001	-1377.227783	-0.680766
 222	1.1100e-001	-1448.524475	-0.720171
 223	1.1150e-001	-1516.777039	-0.749386
 224	1.1200e-001	-1588.073730	-0.791509
 225	1.1250e-001	-1657.127380	-0.823441
 226	1.1300e-001	-1730.667114	-0.865565
 227	1.1350e-001	-1798.599243	-0.905650
 228	1.1400e-001	-1867.973328	-0.946414
 229	1.1450e-001	-1933.502197	-0.980384
 230	1.1500e-001	-2005.599976	-1.007561
 231	1.1550e-001	-2072.731018	-1.055799
 232	1.1600e-001	-2144.828796	-1.085013
 233	1.1650e-001	-2209.236145	-1.111510
 234	1.1700e-001	-2283.416748	-1.157030
 235	1.1750e-001	-2353.591919	-1.191001
 236	1.1800e-001	-2425.369263	-1.227689
 237	1.1850e-001	-2497.467041	-1.271171
 238	1.1900e-001	-2565.719604	-1.311256
 239	1.1950e-001	-2635.734558	-1.340470
 240	1.2000e-001	-2703.025818	-1.389387
 241	1.2050e-001	-2771.598816	-1.405693
 242	1.2100e-001	-2840.812683	-1.449855
 243	1.2150e-001	-2911.148071	-1.495375
 244	1.2200e-001	-2982.765198	-1.516436
 245	1.2250e-001	-3050.056458	-1.555842
 246	1.2300e-001	-3122.314453	-1.598645
 247	1.2350e-001	-3191.528320	-1.625821
 248	1.2400e-001	-3262.825012	-1.658433
 249	1.2450e-001	-3330.116272	-1.691044
 250	1.2500e-001	-3400.772095	-1.733167
 251	1.2550e-001	-3469.985962	-1.768497
 252	1.2600e-001	-3540.321350	-1.824208
 253	1.2650e-001	-3608.734131	-1.852064
 254	1.2700e-001	-3679.069519	-1.876522
 255	1.2750e-001	-3747.802734	-1.933592
 256	1.2800e-001	-3829.353333	-1.972319
 257	1.2850e-001	-3887.191772	-1.987945
 258	1.2900e-001	-3959.129333	-2.042298
 259	1.2950e-001	-4032.188416	-2.061321
 260	1.3000e-001	-4098.197937	-2.115674
 261	1.3050e-001	-4166.770935	-2.140812
 262	1.3100e-001	-4235.984802	-2.186332
 263	1.3150e-001	-4305.038452	-2.211470
 264	1.3200e-001	-4374.572754	-2.268540
 265	1.3250e-001	-4444.747925	-2.311343
 266	1.3300e-001	-4512.680054	-2.337160
 267	1.3350e-001	-4586.700439	-2.404421
 268	1.3400e-001	-4656.715393	-2.451301
 269	1.3450e-001	-4728.973389	-2.470324
 270	1.3500e-001	-4793.380737	-2.545059
 271	1.3550e-001	-4865.318298	-2.594655
 272	1.3600e-001	-4935.493469	-2.644932
 273	1.3650e-001	-5002.464294	-2.713552
 274	1.3700e-001	-5071.998596	-2.739369
 275	1.3750e-001	-5143.295288	-2.782851
 276	1.3800e-001	-5215.553284	-2.842639
 277	1.3850e-001	-5282.043457	-2.922130
 278	1.3900e-001	-5355.102539	-2.976482
 279	1.3950e-001	-5422.233582	-3.045782
 280	1.4000e-001	-5495.452881	-3.118478
 281	1.4050e-001	-5562.744141	-3.185060
 282	1.4100e-001	-5632.598877	-3.270665
 283	1.4150e-001	-5698.287964	-3.363744
 284	1.4200e-001	-5769.584656	-3.455464
 285	1.4250e-001	-5837.837219	-3.577078
 286	1.4300e-001	-5909.133911	-3.668798
 287	1.4350e-001	-5978.668213	-3.780221
 288	1.4400e-001	-6047.401428	-3.900476
 289	1.4450e-001	-6118.537903	-4.019372
 290	1.4500e-001	-6190.635681	-4.117207
 291	1.4550e-001	-6262.893677	-4.255126
 292	1.4600e-001	-6333.068848	-4.386931
 293	1.4650e-001	-6398.277283	-4.476613
 294	1.4700e-001	-6467.170715	-4.601624
 295	1.4750e-001	-6537.185669	-4.713726
 296	1.4800e-001	-6607.040405	-4.829225
 297	1.4850e-001	-6674.171448	-4.912792
 298	1.4900e-001	-6745.147705	-5.043238
 299	1.4950e-001	-6816.284180	-5.115256
 300	1.5000e-001	-6885.337830	-5.232793
 301	1.5050e-001	-6957.595825	-5.319757
 302	1.5100e-001	-6908.889771	-5.327231
 303	1.5150e-001	-6836.151123	-5.330628
 304	1.5200e-001	-6765.174866	-5.312963
 305	1.5250e-001	-6692.916870	-5.289184
 306	1.5300e-001	-6627.868652	-5.272878
 307	1.5350e-001	-6559.455872	-5.253175
 308	1.5400e-001	-6479.187012	-5.211731
 309	1.5450e-001	-6418.624878	-5.190670
 310	1.5500e-001	-6351.333618	-5.160776
 311	1.5550e-001	-6282.760620	-5.122729
 312	1.5600e-001	-6211.944580	-5.084003
 313	1.5650e-001	-6141.769409	-5.050032
 314	1.5700e-001	-6073.837280	-5.024894
 315	1.5750e-001	-6000.617981	-4.999756
 316	1.5800e-001	-5931.884766	-4.963748
 317	1.5850e-001	-5861.389160	-4.913472
 318	1.5900e-001	-5791.694641	-4.879501
 319	1.5950e-001	-5723.121643	-4.853684
 320	1.6000e-001	-5652.145386	-4.811561
 321	1.6050e-001	-5584.213257	-4.779628
 322	1.6100e-001	-5515.319824	-4.754490
 323	1.6150e-001	-5444.664001	-4.706932
 324	1.6200e-001	-5378.974915	-4.677717
 325	1.6250e-001	-5305.595398	-4.641029
 326	1.6300e-001	-5234.779358	-4.596868
 327	1.6350e-001	-5164.604187	-4.565615
 328	1.6400e-001	-5096.031189	-4.530966
 329	1.6450e-001	-5024.734497	-4.492239
 330	1.6500e-001	-4955.200195	-4.452834
 331	1.6550e-001	-4886.146545	-4.407313
 332	1.6600e-001	-4820.777893	-4.374702
 333	1.6650e-001	-4750.282288	-4.337335
 334	1.6700e-001	-4683.631897	-4.299288
 335	1.6750e-001	-4608.009338	-4.252409
 336	1.6800e-001	-4541.519165	-4.223874
 337	1.6850e-001	-4466.857910	-4.187186
 338	1.6900e-001	-4403.091431	-4.146421
 339	1.6950e-001	-4329.391479	-4.090030
 340	1.7000e-001	-4257.293701	-4.047907
 341	1.7050e-001	-4189.521790	-4.026166
 342	1.7100e-001	-4119.667053	-3.979966
 343	1.7150e-001	-4050.773621	-3.941920
 344	1.7200e-001	-3981.719971	-3.897758
 345	1.7250e-001	-3917.312622	-3.845444
 346	1.7300e-001	-3845.695496	-3.818947
 347	1.7350e-001	-3774.238586	-3.770030
 348	1.7400e-001	-3702.461243	-3.725868
 349	1.7450e-001	-3630.844116	-3.687821
 350	1.7500e-001	-3562.911987	-3.629392
 351	1.7550e-001	-3490.493774	-3.594063
 352	1.7600e-001	-3422.882080	-3.546505
 353	1.7650e-001	-3352.546692	-3.481282
 354	1.7700e-001	-3284.774780	-3.450029
 355	1.7750e-001	-3216.041565	-3.410623
 356	1.7800e-001	-3148.269653	-3.356950
 357	1.7850e-001	-3074.249268	-3.309392
 358	1.7900e-001	-3005.996704	-3.255719
 359	1.7950e-001	-2934.539795	-3.214275
 360	1.8000e-001	-2862.762451	-3.170793
 361	1.8050e-001	-2788.902283	-3.116440
 362	1.8100e-001	-2726.257324	-3.068202
 363	1.8150e-001	-2656.402588	-3.028117
 364	1.8200e-001	-2589.431763	-2.979879
 365	1.8250e-001	-2520.057678	-2.907862
 366	1.8300e-001	-2449.722290	-2.860983
 367	1.8350e-001	-2382.110596	-2.799836
 368	1.8400e-001	-2302.963257	-2.761110
 369	1.8450e-001	-2234.870911	-2.702002
 370	1.8500e-001	-2169.342041	-2.652405
 371	1.8550e-001	-2099.006653	-2.593976
 372	1.8600e-001	-2027.709961	-2.549815
 373	1.8650e-001	-1958.175659	-2.471003
 374	1.8700e-001	-1890.403748	-2.405780
 375	1.8750e-001	-1822.311401	-2.361619
 376	1.8800e-001	-1753.097534	-2.288922
 377	1.8850e-001	-1681.640625	-2.223699
 378	1.8900e-001	-1612.747192	-2.170705
 379	1.8950e-001	-1542.251587	-2.110238
 380	1.9000e-001	-1470.314026	-2.034824
 381	1.9050e-001	-1400.459290	-1.981830
 382	1.9100e-001	-1326.438904	-1.903699
 383	1.9150e-001	-1263.153076	-1.829643
 384	1.9200e-001	-1191.696167	-1.754908
 385	1.9250e-001	-1122.642517	-1.688326
 386	1.9300e-001	-1054.550171	-1.617668
 387	1.9350e-001	-985.015869	-1.536139
 388	1.9400e-001	-917.243958	-1.472275
 389	1.9450e-001	-844.345093	-1.366288
 390	1.9500e-001	-771.926880	-1.311256
 391	1.9550e-001	-703.033447	-1.230406
 392	1.9600e-001	-634.460449	-1.154313
 393	1.9650e-001	-562.042236	-1.076860
 394	1.9700e-001	-494.590759	-0.990575
 395	1.9750e-001	-426.818848	-0.915161
 396	1.9800e-001	-357.284546	-0.855373
 397	1.9850e-001	-287.269592	-0.772486
 398	1.9900e-001	-218.696594	-0.713377
 399	1.9950e-001	-145.477295	-0.632528
 400	2.0000e-001	-76.583862	-0.562549
 401	2.0050e-001	-6.408691	-0.531976
 402	2.0100e-001	60.562134	-0.476944
 403	2.0150e-001	134.101868	-0.419874
 404	2.0200e-001	200.592041	-0.377750
 405	2.0250e-001	270.446777	-0.344459
 406	2.0300e-001	339.981079	-0.296221
 407	2.0350e-001	408.714294	-0.258854
 408	2.0400e-001	477.767944	-0.233037
 409	2.0450e-001	549.865723	-0.201784
 410	2.0500e-001	614.593506	-0.156264
 411	2.0550e-001	689.735413	-0.129087
 412	2.0600e-001	758.628845	-0.098514
 413	2.0650e-001	829.605103	-0.062505
 414	2.0700e-001	900.100708	-0.028535
 415	2.0750e-001	968.513489	-0.010191
 416	2.0800e-001	1036.766052	0.029215
 417	2.0850e-001	1108.383179	0.069979
 418	2.0900e-001	1175.834656	0.084246
 419	2.0950e-001	1248.092651	0.110064
 420	2.1000e-001	1312.339783	0.158302
 421	2.1050e-001	1386.360168	0.187516
 422	2.1100e-001	1456.695557	0.222166
 423	2.1150e-001	1527.351379	0.252060
 424	2.1200e-001	1597.206116	0.291466
 425	2.1250e-001	1666.740417	0.328154
 426	2.1300e-001	1734.832764	0.363483
 427	2.1350e-001	1803.405762	0.401530
 428	2.1400e-001	1871.177673	0.425988
 429	2.1450e-001	1942.474365	0.462676
 430	2.1500e-001	2012.489319	0.509555
 431	2.1550e-001	2081.863403	0.531976
 432	2.1600e-001	2153.800964	0.545564
 433	2.1650e-001	2223.335266	0.581572
 434	2.1700e-001	2290.145874	0.626413
 435	2.1750e-001	2364.166260	0.665819
 436	2.1800e-001	2431.137085	0.693675
 437	2.1850e-001	2503.234863	0.750065
 438	2.1900e-001	2571.647644	0.777242
 439	2.1950e-001	2639.739990	0.802380
 440	2.2000e-001	2708.152771	0.829556
 441	2.2050e-001	2785.858154	0.877114
 442	2.2100e-001	2850.746155	0.921955
 443	2.2150e-001	2921.722412	0.972231
 444	2.2200e-001	2993.019104	0.985140
 445	2.2250e-001	3059.509277	1.020469
 446	2.2300e-001	3128.723145	1.079578
 447	2.2350e-001	3199.859619	1.123060
 448	2.2400e-001	3265.708923	1.150236
 449	2.2450e-001	3336.845398	1.182848
 450	2.2500e-001	3406.700134	1.229047
 451	2.2550e-001	3478.317261	1.269132
 452	2.2600e-001	3547.691345	1.300385
 453	2.2650e-001	3622.032166	1.336394
 454	2.2700e-001	3688.682556	1.381234
 455	2.2750e-001	3757.575989	1.429472
 456	2.2800e-001	3826.950073	1.473634
 457	2.2850e-001	3923.881531	1.498093
 458	2.2900e-001	3962.974548	1.569430
 459	2.2950e-001	4035.392761	1.612912
 460	2.3000e-001	4103.965759	1.663868
 461	2.3050e-001	4173.019409	1.708029
 462	2.3100e-001	4245.597839	1.764420
 463	2.3150e-001	4318.016052	1.797032
 464	2.3200e-001	4386.268616	1.866331
 465	2.3250e-001	4457.084656	1.901660
 466	2.3300e-001	4526.618958	1.962128
 467	2.3350e-001	4590.705872	2.014442
 468	2.3400e-001	4665.687561	2.063359
 469	2.3450e-001	4731.536865	2.127903
 470	2.3500e-001	4800.750732	2.197882
 471	2.3550e-001	4872.848511	2.248837
 472	2.3600e-001	4942.062378	2.314740
 473	2.3650e-001	5013.519287	2.393551
 474	2.3700e-001	5083.694458	2.448583
 475	2.3750e-001	5156.593323	2.528074
 476	2.3800e-001	5223.564148	2.603488
 477	2.3850e-001	5293.418884	2.695887
 478	2.3900e-001	5361.190796	2.795760
 479	2.3950e-001	5429.924011	2.888159
 480	2.4000e-001	5502.822876	2.998903
 481	2.4050e-001	5569.313049	3.121196
 482	2.4100e-001	5639.328003	3.221748
 483	2.4150e-001	5712.066650	3.363065
 484	2.4200e-001	5780.319214	3.488755
 485	2.4250e-001	5852.256775	3.605613
 486	2.4300e-001	5921.150208	3.760518
 487	2.4350e-001	5989.082336	3.878055
 488	2.4400e-001	6055.412292	4.009181
 489	2.4450e-001	6128.631592	4.133512
 490	2.4500e-001	6197.525024	4.240859
 491	2.4550e-001	6266.098022	4.362473
 492	2.4600e-001	6336.273193	4.481369
 493	2.4650e-001	6406.448364	4.588036
 494	2.4700e-001	6484.634399	4.717802
 495	2.4750e-001	6547.599792	4.807484
 496	2.4800e-001	6615.531921	4.895807
 497	2.4850e-001	6687.469482	4.986848
 498	2.4900e-001	6756.042480	5.108461
 499	2.4950e-001	6822.052002	5.187952
 500	2.5000e-001	6890.945435	5.281031
 501	2.5050e-001	6964.965820	5.359842
 502	2.5100e-001	6913.536072	5.378865
 503	2.5150e-001	6847.686768	5.351010
 504	2.5200e-001	6776.229858	5.352369
 505	2.5250e-001	6709.899902	5.323154
 506	2.5300e-001	6637.641907	5.293940
 507	2.5350e-001	6569.709778	5.249778
 508	2.5400e-001	6497.131348	5.244343
 509	2.5450e-001	6427.116394	5.206296
 510	2.5500e-001	6358.543396	5.183876
 511	2.5550e-001	6290.771484	5.149905
 512	2.5600e-001	6218.673706	5.121370
 513	2.5650e-001	6154.747009	5.087400
 514	2.5700e-001	6084.411621	5.048674
 515	2.5750e-001	6011.512756	5.020139
 516	2.5800e-001	5946.464539	4.976657
 517	2.5850e-001	5867.156982	4.958992
 518	2.5900e-001	5802.589417	4.910754
 519	2.5950e-001	5732.894897	4.890372
 520	2.6000e-001	5661.437988	4.846890
 521	2.6050e-001	5594.627380	4.804087
 522	2.6100e-001	5524.932861	4.770117
 523	2.6150e-001	5455.718994	4.740902
 524	2.6200e-001	5386.024475	4.691985
 525	2.6250e-001	5316.650391	4.663450
 526	2.6300e-001	5245.674133	4.614533
 527	2.6350e-001	5175.819397	4.575127
 528	2.6400e-001	5107.246399	4.537080
 529	2.6450e-001	5036.109924	4.528248
 530	2.6500e-001	4965.454102	4.471178
 531	2.6550e-001	4903.289795	4.435849
 532	2.6600e-001	4828.147888	4.403916
 533	2.6650e-001	4759.895325	4.350243
 534	2.6700e-001	4689.559937	4.326464
 535	2.6750e-001	4622.589111	4.282303
 536	2.6800e-001	4549.209595	4.242897
 537	2.6850e-001	4480.796814	4.210965
 538	2.6900e-001	4410.942078	4.170200
 539	2.6950e-001	4338.844299	4.129436
 540	2.7000e-001	4269.950867	4.083236
 541	2.7050e-001	4200.576782	4.035678
 542	2.7100e-001	4127.838135	3.988119
 543	2.7150e-001	4061.828613	3.941920
 544	2.7200e-001	3993.736267	3.902514
 545	2.7250e-001	3923.721313	3.853597
 546	2.7300e-001	3852.424622	3.810115
 547	2.7350e-001	3785.133362	3.772747
 548	2.7400e-001	3711.753845	3.725868
 549	2.7450e-001	3640.937805	3.696654
 550	2.7500e-001	3572.685242	3.645019
 551	2.7550e-001	3499.465942	3.583872
 552	2.7600e-001	3431.854248	3.562810
 553	2.7650e-001	3367.767334	3.501664
 554	2.7700e-001	3291.984558	3.465655
 555	2.7750e-001	3225.975037	3.421494
 556	2.7800e-001	3157.402039	3.376653
 557	2.7850e-001	3085.144043	3.320262
 558	2.7900e-001	3015.449524	3.305995
 559	2.7950e-001	2942.871094	3.243489
 560	2.8000e-001	2872.215271	3.189816
 561	2.8050e-001	2805.885315	3.145655
 562	2.8100e-001	2735.870361	3.102173
 563	2.8150e-001	2665.214539	3.049179
 564	2.8200e-001	2600.646973	2.998223
 565	2.8250e-001	2528.228760	2.927565
 566	2.8300e-001	2455.650330	2.884083
 567	2.8350e-001	2387.718201	2.831769
 568	2.8400e-001	2310.333252	2.778095
 569	2.8450e-001	2252.494812	2.729178
 570	2.8500e-001	2176.551819	2.683658
 571	2.8550e-001	2108.940125	2.620473
 572	2.8600e-001	2034.439087	2.569517
 573	2.8650e-001	1968.589783	2.502256
 574	2.8700e-001	1898.895264	2.442468
 575	2.8750e-001	1831.924438	2.386757
 576	2.8800e-001	1759.826660	2.329687
 577	2.8850e-001	1692.535400	2.273975
 578	2.8900e-001	1616.912842	2.212829
 579	2.8950e-001	1547.378540	2.152361
 580	2.9000e-001	1479.927063	2.093932
 581	2.9050e-001	1408.790588	2.025312
 582	2.9100e-001	1337.814331	1.958051
 583	2.9150e-001	1272.285461	1.879240
 584	2.9200e-001	1201.629639	1.801108
 585	2.9250e-001	1136.260986	1.739282
 586	2.9300e-001	1061.119080	1.661830
 587	2.9350e-001	995.109558	1.582339
 588	2.9400e-001	921.089172	1.500131
 589	2.9450e-001	854.759216	1.426755
 590	2.9500e-001	781.059265	1.351341
 591	2.9550e-001	708.160400	1.278644
 592	2.9600e-001	643.112183	1.203909
 593	2.9650e-001	572.937012	1.108113
 594	2.9700e-001	502.120972	1.036096
 595	2.9750e-001	434.349060	0.945735
 596	2.9800e-001	364.173889	0.838388
 597	2.9850e-001	299.285889	0.767051
 598	2.9900e-001	225.105286	0.684842
 599	2.9950e-001	155.410767	0.605352
 600	3.0000e-001	83.793640	0.526540
 601	3.0050e-001	17.303467	0.432103
 602	3.0100e-001	-56.396484	0.356689
 603	3.0150e-001	-123.046875	0.281275
 604	3.0200e-001	-192.901611	0.193631
 605	3.0250e-001	-260.353088	0.122973
 606	3.0300e-001	-333.732605	0.050276
 607	3.0350e-001	-397.659302	-0.015626
 608	3.0400e-001	-466.873169	-0.078132
 609	3.0450e-001	-538.810730	-0.141996
 610	3.0500e-001	-611.389160	-0.212654
 611	3.0550e-001	-683.486938	-0.254098
 612	3.0600e-001	-752.380371	-0.306413
 613	3.0650e-001	-822.395325	-0.345139
 614	3.0700e-001	-891.288757	-0.402209
 615	3.0750e-001	-959.701538	-0.440256
 616	3.0800e-001	-1030.197144	-0.486455
 617	3.0850e-001	-1094.123840	-0.535373
 618	3.0900e-001	-1168.464661	-0.570023
 619	3.0950e-001	-1234.794617	-0.612146
 620	3.1000e-001	-1308.334351	-0.654948
 621	3.1050e-001	-1378.028870	-0.678728
 622	3.1100e-001	-1448.684692	-0.722889
 623	3.1150e-001	-1518.218994	-0.770448
 624	3.1200e-001	-1591.278076	-0.814609
 625	3.1250e-001	-1654.403687	-0.849259
 626	3.1300e-001	-1726.020813	-0.904291
 627	3.1350e-001	-1791.870117	-0.932146
 628	3.1400e-001	-1864.608765	-0.968834
 629	3.1450e-001	-1920.204163	-0.998049
 630	3.1500e-001	-2004.638672	-1.033378
 631	3.1550e-001	-2078.979492	-1.082295
 632	3.1600e-001	-2144.989014	-1.126457
 633	3.1650e-001	-2214.683533	-1.157030
 634	3.1700e-001	-2285.980225	-1.203909
 635	3.1750e-001	-2355.995178	-1.250109
 636	3.1800e-001	-2423.126221	-1.280682
 637	3.1850e-001	-2489.936829	-1.324164
 638	3.1900e-001	-2560.752869	-1.356776
 639	3.1950e-001	-2629.806519	-1.390067
 640	3.2000e-001	-2700.302124	-1.418602
 641	3.2050e-001	-2768.714905	-1.454610
 642	3.2100e-001	-2838.569641	-1.488581
 643	3.2150e-001	-2906.501770	-1.527986
 644	3.2200e-001	-2983.245850	-1.570110
 645	3.2250e-001	-3051.658630	-1.608836
 646	3.2300e-001	-3118.789673	-1.647562
 647	3.2350e-001	-3188.484192	-1.689685
 648	3.2400e-001	-3257.698059	-1.714144
 649	3.2450e-001	-3326.431274	-1.761702
 650	3.2500e-001	-3396.286011	-1.789558
 651	3.2550e-001	-3467.903137	-1.822849
 652	3.2600e-001	-3540.321350	-1.850025
 653	3.2650e-001	-3607.772827	-1.905057
 654	3.2700e-001	-3681.152344	-1.936310
 655	3.2750e-001	-3748.283386	-1.974357
 656	3.2800e-001	-3819.259644	-2.006289
 657	3.2850e-001	-3887.031555	-2.045015
 658	3.2900e-001	-3956.565857	-2.086459
 659	3.2950e-001	-4026.741028	-2.123826
 660	3.3000e-001	-4095.634460	-2.170705
 661	3.3050e-001	-4163.566589	-2.210111
 662	3.3100e-001	-4239.189148	-2.248837
 663	3.3150e-001	-4307.121277	-2.292999
 664	3.3200e-001	-4375.373840	-2.339198
 665	3.3250e-001	-4445.228577	-2.371131
 666	3.3300e-001	-4517.486572	-2.426842
 667	3.3350e-001	-4583.816528	-2.471003
 668	3.3400e-001	-4655.433655	-2.518562
 669	3.3450e-001	-4722.244263	-2.560006
 670	3.3500e-001	-4792.098999	-2.602808
 671	3.3550e-001	-4860.191345	-2.666673
 672	3.3600e-001	-4934.692383	-2.716949
 673	3.3650e-001	-5001.983643	-2.759751
 674	3.3700e-001	-5071.197510	-2.816822
 675	3.3750e-001	-5143.455505	-2.893595
 676	3.3800e-001	-5214.271545	-2.939794
 677	3.3850e-001	-5283.164978	-3.015208
 678	3.3900e-001	-5353.660583	-3.073637
 679	3.3950e-001	-5419.830322	-3.153807
 680	3.4000e-001	-5490.806580	-3.242130
 681	3.4050e-001	-5557.777405	-3.316865
 682	3.4100e-001	-5631.156921	-3.407906
 683	3.4150e-001	-5698.768616	-3.500305
 684	3.4200e-001	-5770.385742	-3.604254
 685	3.4250e-001	-5838.478088	-3.719754
 686	3.4300e-001	-5913.780212	-3.821665
 687	3.4350e-001	-5982.994080	-3.932408
 688	3.4400e-001	-6049.964905	-4.054701
 689	3.4450e-001	-6118.377686	-4.157292
 690	3.4500e-001	-6188.392639	-4.275508
 691	3.4550e-001	-6258.407593	-4.386252
 692	3.4600e-001	-6326.980591	-4.494278
 693	3.4650e-001	-6396.675110	-4.605021
 694	3.4700e-001	-6467.010498	-4.709650
 695	3.4750e-001	-6537.185669	-4.814278
 696	3.4800e-001	-6607.841492	-4.899884
 697	3.4850e-001	-6678.016663	-5.003153
 698	3.4900e-001	-6750.274658	-5.097591
 699	3.4950e-001	-6814.682007	-5.192708
 700	3.5000e-001	-6885.818481	-5.283069
 701	3.5050e-001	-6953.750610	-5.358483
 702	3.5100e-001	-6907.287598	-5.378865
 703	3.5150e-001	-6833.267212	-5.373430
 704	3.5200e-001	-6767.097473	-5.344895
 705	3.5250e-001	-6695.320129	-5.321116
 706	3.5300e-001	-6628.189087	-5.289863
 707	3.5350e-001	-6558.975220	-5.264725
 708	3.5400e-001	-6492.485046	-5.274237
 709	3.5450e-001	-6423.431396	-5.206296
 710	3.5500e-001	-6354.377747	-5.188632
 711	3.5550e-001	-6281.318665	-5.160776
 712	3.5600e-001	-6210.823059	-5.125447
 713	3.5650e-001	-6137.283325	-5.088079
 714	3.5700e-001	-6072.395325	-5.060903
 715	3.5750e-001	-6004.302979	-5.031009
 716	3.5800e-001	-5934.127808	-4.993642
 717	3.5850e-001	-5868.919373	-4.959671
 718	3.5900e-001	-5795.539856	-4.950160
 719	3.5950e-001	-5726.005554	-4.900563
 720	3.6000e-001	-5660.316467	-4.866593
 721	3.6050e-001	-5580.688477	-4.850966
 722	3.6100e-001	-5512.275696	-4.790499
 723	3.6150e-001	-5446.746826	-4.769437
 724	3.6200e-001	-5374.008179	-4.725276
 725	3.6250e-001	-5305.435181	-4.687909
 726	3.6300e-001	-5237.503052	-4.647824
 727	3.6350e-001	-5166.206360	-4.610456
 728	3.6400e-001	-5097.953796	-4.558821
 729	3.6450e-001	-5031.143188	-4.531645
 730	3.6500e-001	-4960.968018	-4.495636
 731	3.6550e-001	-4888.389587	-4.450116
 732	3.6600e-001	-4820.938110	-4.418184
 733	3.6650e-001	-4746.757507	-4.377420
 734	3.6700e-001	-4680.587769	-4.336655
 735	3.6750e-001	-4608.810425	-4.307441
 736	3.6800e-001	-4537.513733	-4.265317
 737	3.6850e-001	-4465.255737	-4.214362
 738	3.6900e-001	-4399.566650	-4.191262
 739	3.6950e-001	-4332.275391	-4.146421
 740	3.7000e-001	-4261.619568	-4.117886
 741	3.7050e-001	-4191.123962	-4.069648
 742	3.7100e-001	-4123.832703	-4.020051
 743	3.7150e-001	-4053.657532	-3.984043
 744	3.7200e-001	-3985.084534	-3.939202
 745	3.7250e-001	-3909.461975	-3.919499
 746	3.7300e-001	-3841.049194	-3.848841
 747	3.7350e-001	-3772.636414	-3.811473
 748	3.7400e-001	-3704.544067	-3.771388
 749	3.7450e-001	-3633.728027	-3.717036
 750	3.7500e-001	-3565.475464	-3.689180
 751	3.7550e-001	-3495.780945	-3.631431
 752	3.7600e-001	-3426.086426	-3.595422
 753	3.7650e-001	-3355.110168	-3.558055
 754	3.7700e-001	-3285.736084	-3.494190
 755	3.7750e-001	-3213.157654	-3.444594
 756	3.7800e-001	-3144.584656	-3.411303
 757	3.7850e-001	-3072.967529	-3.350156
 758	3.7900e-001	-3003.913879	-3.316186
 759	3.7950e-001	-2934.860229	-3.269986
 760	3.8000e-001	-2865.966797	-3.206801
 761	3.8050e-001	-2797.073364	-3.157204
 762	3.8100e-001	-2729.782104	-3.126631
 763	3.8150e-001	-2658.004761	-3.060729
 764	3.8200e-001	-2586.227417	-3.010453
 765	3.8250e-001	-2516.693115	-2.975803
 766	3.8300e-001	-2445.236206	-2.918053
 767	3.8350e-001	-2375.862122	-2.856227
 768	3.8400e-001	-2307.929993	-2.775378
 769	3.8450e-001	-2237.113953	-2.761790
 770	3.8500e-001	-2170.623779	-2.697925
 771	3.8550e-001	-2100.128174	-2.659199
 772	3.8600e-001	-2030.273438	-2.602808
 773	3.8650e-001	-1959.457397	-2.543021
 774	3.8700e-001	-1891.845703	-2.500218
 775	3.8750e-001	-1818.786621	-2.422086
 776	3.8800e-001	-1749.732971	-2.364336
 777	3.8850e-001	-1676.834106	-2.312702
 778	3.8900e-001	-1607.940674	-2.252914
 779	3.8950e-001	-1534.721375	-2.174782
 780	3.9000e-001	-1471.595764	-2.128582
 781	3.9050e-001	-1403.182983	-2.070833
 782	3.9100e-001	-1335.411072	-1.987945
 783	3.9150e-001	-1262.832642	-1.923401
 784	3.9200e-001	-1196.182251	-1.850025
 785	3.9250e-001	-1120.559692	-1.775291
 786	3.9300e-001	-1051.666260	-1.718900
 787	3.9350e-001	-979.087830	-1.634653
 788	3.9400e-001	-911.956787	-1.559239
 789	3.9450e-001	-841.941833	-1.481107
 790	3.9500e-001	-772.407532	-1.414525
 791	3.9550e-001	-704.635620	-1.334355
 792	3.9600e-001	-629.493713	-1.261659
 793	3.9650e-001	-564.926147	-1.195756
 794	3.9700e-001	-497.154236	-1.116945
 795	3.9750e-001	-424.255371	-1.035416
 796	3.9800e-001	-354.240417	-0.962720
 797	3.9850e-001	-281.501770	-0.881870
 798	3.9900e-001	-215.492249	-0.817327
 799	3.9950e-001	-144.836426	-0.735798
 800	4.0000e-001	-75.622559	-0.663101
 801	4.0050e-001	-6.889343	-0.603313

Center data before PMax,±Pr and ±Vc Calc.

PMax (µC/cm2):	5.36e+000
Pr (µC/cm2):	4.14e-001
-Pr (µC/cm2):	-6.03e-001
Vc:	9.86e+000
-Vc:	-3.83e+000
C (Max-Eff) (nF):	4.75e-003
K (Eff):	8.66e+000
Vert. (±Pr) Shift (µC/cm2):	-9.45e-002
Horiz. Shift (±Vc):	3.02e+000
Offset (µC/cm2):	4.76e-001

A (Loop Area - µC/cm2·Volts):	2.15e+002



Hysteresis Version: 5.16.2 - Radiant Technologies, Inc., 1999 - 3/20/18

