»»»»»»»»»»»»»»»»»»»»»»»»»»»»»»»»»»»» Hysteresis ««««««««««««««««««««««««««««««««««««
»»»  Executed Version:	5.16.2
»»»  Vision Version:	5.16.10 (R)
»»»  Vision Compiled:	4/26/18
»»»  Driver Version:	5.16.6
»»»  Windows Version:	Windows 8
»»»  Processor Information:	x86 (AMD or Intel) - 8 Processors
»»»  Tester Name:	PPM21016-863
»»»  Tester S/N:	PPM21016-863
»»»  Internal Amp Type:	 RTI ML200V    
»»»  Internal Amp S/N:	 iAB2-0000     
»»»  Execution Count:	1
»»»»»»»»»»»»»»»»»»»»»»»»»»»»»»»»»»»»»»»»»»««««««««««««««««««««««««««««««««««««««««««

Stored:	6/5/2018 - 7:44:42
Configured:	06/05/18 07:27:31 AM
Executed:	06/05/18 07:44:23 AM

»»»»»»»»»»»»»»»»»»»»»»»»»»»»»»»»»»» Sample Info ««««««««««««««««««««««««««««««««««««
Sample Name:	Internal Reference Cap.
Lot Name:	N/A
Wafer Name:	N/A
Die Row/Column:	0/0
Capacitor Number:	0
Sample Area (cm2):	6.20e-005
Sample Thickness (µm):	1.00e-001

Mux Loop Adjustment:	Disabled

Amplifier:	Internal

»»»»»»»»»»»»»»»»»»»»»»»»»»»»»»»»»»» Tester Info «««««««««««««««««««««««««««««««««««
Tester Name:	PPM21016-863
Tester Serial Number:	PPM21016-863
Return Signal Amp. Level:	2.0 [Index: 1]

»»»»»»»»»»»»»»»»»»»»»»»»»»»»»»»» Hysteresis Info ««««««««««««««««««««««««««««««««««
Task Name:	Hyst-1
Volts:	3.00
Field:	300.00 (kV/cm)
Hysteresis Period (ms):	4.00e-001
Preset:	Enabled
Preset Delay (ms):	1.00e+003
Profile:	Double Bipolar

»»»»»»»»»»»»»»»»»»»»»»»»»»»»»»»»»»»»»» Data «««««««««««««««««««««««««««««««««««««««
Points:	801

Valid Data

Point	Time (ms)	Field (kV/cm)	Measured Polarization
   1	5.0000e-004	0.167847	5.923071
   2	1.0000e-003	3.028870	5.991011
   3	1.5000e-003	6.080627	6.095640
   4	2.0000e-003	8.728027	6.365364
   5	2.5000e-003	12.031555	6.627616
   6	3.0000e-003	15.190125	6.873561
   7	3.5000e-003	17.585754	7.163668
   8	4.0000e-003	20.889282	7.536662
   9	4.5000e-003	24.009705	7.936833
  10	5.0000e-003	26.664734	8.394074
  11	5.5000e-003	29.891968	8.917897
  12	6.0000e-003	32.890320	9.458025
  13	6.5000e-003	36.125183	10.065415
  14	7.0000e-003	39.039612	10.695905
  15	7.5000e-003	41.908264	11.381427
  16	8.0000e-003	44.998169	12.098880
  17	8.5000e-003	47.912598	12.813617
  18	9.0000e-003	50.857544	13.550094
  19	9.5000e-003	53.710938	14.347718
  20	1.0000e-002	56.861877	15.135830
  21	1.0500e-002	59.616089	15.925301
  22	1.1000e-002	62.728882	16.774560
  23	1.1500e-002	65.841675	17.602757
  24	1.2000e-002	68.817139	18.414648
  25	1.2500e-002	71.952820	19.216349
  26	1.3000e-002	74.813843	20.066966
  27	1.3500e-002	77.888489	20.887010
  28	1.4000e-002	80.772400	21.723360
  29	1.4500e-002	83.946228	22.550878
  30	1.5000e-002	86.883545	23.419840
  31	1.5500e-002	89.691162	24.260946
  32	1.6000e-002	93.009949	25.102731
  33	1.6500e-002	95.893860	25.941119
  34	1.7000e-002	98.876953	26.808722
  35	1.7500e-002	101.913452	27.630125
  36	1.8000e-002	104.804993	28.419596
  37	1.8500e-002	107.826233	29.233526
  38	1.9000e-002	110.633850	30.020959
  39	1.9500e-002	113.945007	30.807033
  40	2.0000e-002	116.966248	31.530601
  41	2.0500e-002	119.621277	32.267078
  42	2.1000e-002	122.955322	32.943768
  43	2.1500e-002	125.869751	33.625213
  44	2.2000e-002	128.646851	34.217656
  45	2.2500e-002	131.752014	34.831840
  46	2.3000e-002	134.872437	35.378762
  47	2.3500e-002	138.015747	35.901226
  48	2.4000e-002	141.105652	36.344200
  49	2.4500e-002	144.226074	36.785814
  50	2.5000e-002	146.919250	37.165603
  51	2.5500e-002	149.803162	37.522971
  52	2.6000e-002	153.213501	37.885774
  53	2.6500e-002	156.082153	38.183355
  54	2.7000e-002	159.172058	38.421827
  55	2.7500e-002	162.040710	38.645351
  56	2.8000e-002	164.878845	38.915076
  57	2.8500e-002	168.014526	39.120936
  58	2.9000e-002	171.043396	39.315926
  59	2.9500e-002	174.057007	39.531978
  60	3.0000e-002	177.215576	39.709303
  61	3.0500e-002	180.000305	39.879155
  62	3.1000e-002	182.960510	40.048327
  63	3.1500e-002	186.088562	40.252149
  64	3.2000e-002	189.208984	40.391428
  65	3.2500e-002	191.795349	40.501491
  66	3.3000e-002	195.236206	40.642129
  67	3.3500e-002	198.089600	40.785484
  68	3.4000e-002	200.973511	40.907777
  69	3.4500e-002	203.887939	41.049094
  70	3.5000e-002	207.313538	41.241366
  71	3.5500e-002	210.067749	41.331727
  72	3.6000e-002	212.944031	41.436356
  73	3.6500e-002	216.186523	41.542343
  74	3.7000e-002	218.879700	41.644254
  75	3.7500e-002	222.251892	41.791006
  76	3.8000e-002	225.135803	41.907864
  77	3.8500e-002	227.859497	42.026081
  78	3.9000e-002	231.056213	42.143618
  79	3.9500e-002	233.993530	42.264553
  80	4.0000e-002	237.236023	42.363067
  81	4.0500e-002	240.104675	42.451390
  82	4.1000e-002	243.202209	42.580477
  83	4.1500e-002	245.971680	42.666082
  84	4.2000e-002	249.183655	42.750329
  85	4.2500e-002	252.105713	42.873981
  86	4.3000e-002	254.814148	43.014618
  87	4.3500e-002	258.293152	43.070329
  88	4.4000e-002	261.108398	43.168843
  89	4.4500e-002	263.801575	43.260563
  90	4.5000e-002	267.127991	43.378780
  91	4.5500e-002	270.248413	43.462347
  92	4.6000e-002	272.850037	43.543876
  93	4.6500e-002	276.100159	43.664131
  94	4.7000e-002	278.953552	43.704896
  95	4.7500e-002	282.051086	43.780310
  96	4.8000e-002	284.896851	43.898527
  97	4.8500e-002	287.925720	43.993644
  98	4.9000e-002	290.977478	44.094875
  99	4.9500e-002	294.136047	44.160778
 100	5.0000e-002	296.882629	44.257933
 101	5.0500e-002	299.964905	44.343538
 102	5.1000e-002	296.867371	44.310927
 103	5.1500e-002	293.983459	44.250459
 104	5.2000e-002	290.763855	44.153984
 105	5.2500e-002	287.994385	44.086043
 106	5.3000e-002	284.973145	44.071775
 107	5.3500e-002	281.822205	43.971223
 108	5.4000e-002	278.968811	43.908038
 109	5.4500e-002	275.955200	43.844853
 110	5.5000e-002	272.949219	43.766042
 111	5.5500e-002	270.195007	43.672964
 112	5.6000e-002	266.906738	43.619290
 113	5.6500e-002	264.076233	43.569014
 114	5.7000e-002	261.268616	43.448080
 115	5.7500e-002	258.186340	43.357719
 116	5.8000e-002	254.638672	43.332581
 117	5.8500e-002	252.189636	43.221837
 118	5.9000e-002	249.168396	43.136911
 119	5.9500e-002	245.765686	43.064894
 120	6.0000e-002	242.927551	42.988121
 121	6.0500e-002	239.936829	42.907272
 122	6.1000e-002	236.930847	42.814872
 123	6.1500e-002	233.924866	42.746932
 124	6.2000e-002	231.025696	42.673556
 125	6.2500e-002	227.882385	42.535636
 126	6.3000e-002	225.090027	42.450031
 127	6.3500e-002	222.068787	42.388205
 128	6.4000e-002	218.887329	42.303279
 129	6.4500e-002	216.140747	42.202047
 130	6.5000e-002	213.172913	42.111007
 131	6.5500e-002	209.800720	42.023363
 132	6.6000e-002	207.046509	41.941834
 133	6.6500e-002	204.025269	41.834488
 134	6.7000e-002	201.026917	41.755677
 135	6.7500e-002	197.898865	41.630666
 136	6.8000e-002	194.839478	41.540984
 137	6.8500e-002	191.955566	41.472364
 138	6.9000e-002	189.140320	41.371812
 139	6.9500e-002	186.119080	41.269221
 140	7.0000e-002	182.891846	41.148966
 141	7.0500e-002	179.939270	41.055208
 142	7.1000e-002	177.337646	40.942427
 143	7.1500e-002	173.988342	40.881280
 144	7.2000e-002	171.112061	40.744040
 145	7.2500e-002	167.991638	40.622426
 146	7.3000e-002	164.871216	40.490621
 147	7.3500e-002	162.162781	40.394825
 148	7.4000e-002	158.905029	40.303784
 149	7.4500e-002	155.700684	40.188285
 150	7.5000e-002	153.213501	40.080259
 151	7.5500e-002	149.818420	39.954569
 152	7.6000e-002	146.591187	39.822084
 153	7.6500e-002	143.966675	39.718135
 154	7.7000e-002	141.052246	39.637965
 155	7.7500e-002	137.779236	39.498007
 156	7.8000e-002	134.864807	39.328835
 157	7.8500e-002	131.965637	39.193633
 158	7.9000e-002	128.829956	39.074057
 159	7.9500e-002	126.113892	38.955840
 160	8.0000e-002	123.214722	38.802974
 161	8.0500e-002	119.995117	38.669810
 162	8.1000e-002	116.928101	38.519661
 163	8.1500e-002	114.082336	38.368153
 164	8.2000e-002	110.816956	38.221401
 165	8.2500e-002	108.184814	38.086879
 166	8.3000e-002	105.072021	37.874904
 167	8.3500e-002	101.997375	37.731549
 168	8.4000e-002	99.021912	37.556262
 169	8.4500e-002	95.947266	37.394563
 170	8.5000e-002	92.842102	37.188703
 171	8.5500e-002	90.087891	37.009339
 172	8.6000e-002	86.860657	36.801441
 173	8.6500e-002	84.022522	36.625474
 174	8.7000e-002	80.963135	36.408744
 175	8.7500e-002	77.995300	36.149210
 176	8.8000e-002	74.859619	35.855027
 177	8.8500e-002	71.929932	35.591417
 178	8.9000e-002	68.939209	35.371968
 179	8.9500e-002	65.650940	35.123305
 180	9.0000e-002	63.163757	34.783602
 181	9.0500e-002	60.104370	34.472433
 182	9.1000e-002	56.991577	34.142242
 183	9.1500e-002	54.176331	33.758377
 184	9.2000e-002	51.200867	33.432941
 185	9.2500e-002	47.782898	32.997441
 186	9.3000e-002	45.234680	32.493321
 187	9.3500e-002	42.098999	32.021812
 188	9.4000e-002	38.902283	31.492554
 189	9.4500e-002	36.193848	30.985717
 190	9.5000e-002	33.149719	30.398709
 191	9.5500e-002	29.991150	29.787243
 192	9.6000e-002	27.168274	29.147241
 193	9.6500e-002	24.070740	28.463758
 194	9.7000e-002	21.057129	27.755136
 195	9.7500e-002	18.005371	26.984009
 196	9.8000e-002	15.266418	26.156491
 197	9.8500e-002	12.268066	25.341882
 198	9.9000e-002	9.231567	24.471562
 199	9.9500e-002	6.202698	23.578821
 200	1.0000e-001	3.204346	22.638522
 201	1.0050e-001	0.389099	21.661534
 202	1.0100e-001	-2.593994	20.656691
 203	1.0150e-001	-5.485535	19.638260
 204	1.0200e-001	-8.399963	18.644967
 205	1.0250e-001	-11.718750	17.587810
 206	1.0300e-001	-14.862061	16.505514
 207	1.0350e-001	-17.570496	15.427975
 208	1.0400e-001	-20.515442	14.429247
 209	1.0450e-001	-23.536682	13.378883
 210	1.0500e-001	-26.832581	12.356376
 211	1.0550e-001	-29.747009	11.355609
 212	1.0600e-001	-32.630920	10.375225
 213	1.0650e-001	-35.797119	9.424734
 214	1.0700e-001	-38.795471	8.486473
 215	1.0750e-001	-41.801453	7.533265
 216	1.0800e-001	-44.647217	6.561713
 217	1.0850e-001	-47.592163	5.620055
 218	1.0900e-001	-50.888062	4.691306
 219	1.0950e-001	-53.642273	3.738097
 220	1.1000e-001	-56.541443	2.775378
 221	1.1050e-001	-59.791565	1.763061
 222	1.1100e-001	-62.507629	0.737836
 223	1.1150e-001	-65.483093	-0.264969
 224	1.1200e-001	-68.733215	-1.315332
 225	1.1250e-001	-71.601868	-2.369092
 226	1.1300e-001	-74.699402	-3.446632
 227	1.1350e-001	-77.682495	-4.543195
 228	1.1400e-001	-80.657959	-5.648590
 229	1.1450e-001	-83.778381	-6.780482
 230	1.1500e-001	-86.517334	-7.947703
 231	1.1550e-001	-89.622498	-9.124436
 232	1.1600e-001	-92.353821	-10.316796
 233	1.1650e-001	-95.619202	-11.532255
 234	1.1700e-001	-98.602295	-12.711026
 235	1.1750e-001	-101.547241	-13.981517
 236	1.1800e-001	-104.591370	-15.234344
 237	1.1850e-001	-107.765198	-16.466788
 238	1.1900e-001	-110.671997	-17.625857
 239	1.1950e-001	-113.754272	-18.859660
 240	1.2000e-001	-116.622925	-20.092784
 241	1.2050e-001	-119.812012	-21.283105
 242	1.2100e-001	-122.650146	-22.504679
 243	1.2150e-001	-125.495911	-23.677335
 244	1.2200e-001	-128.501892	-24.836404
 245	1.2250e-001	-131.599426	-25.957425
 246	1.2300e-001	-134.681702	-27.111738
 247	1.2350e-001	-137.741089	-28.181804
 248	1.2400e-001	-140.563965	-29.240999
 249	1.2450e-001	-143.646240	-30.249239
 250	1.2500e-001	-146.820068	-31.235059
 251	1.2550e-001	-149.734497	-32.226993
 252	1.2600e-001	-152.709961	-33.035488
 253	1.2650e-001	-155.838013	-33.903770
 254	1.2700e-001	-158.760071	-34.695958
 255	1.2750e-001	-161.872864	-35.427000
 256	1.2800e-001	-164.810181	-36.096216
 257	1.2850e-001	-167.831421	-36.649933
 258	1.2900e-001	-170.707703	-37.213841
 259	1.2950e-001	-173.812866	-37.675838
 260	1.3000e-001	-177.009583	-38.073291
 261	1.3050e-001	-179.611206	-38.455117
 262	1.3100e-001	-182.983398	-38.803653
 263	1.3150e-001	-185.707092	-39.095119
 264	1.3200e-001	-188.804626	-39.399493
 265	1.3250e-001	-192.008972	-39.599918
 266	1.3300e-001	-194.976807	-39.784717
 267	1.3350e-001	-197.723389	-40.050365
 268	1.3400e-001	-200.958252	-40.283402
 269	1.3450e-001	-203.842163	-40.435589
 270	1.3500e-001	-206.970215	-40.610876
 271	1.3550e-001	-209.846497	-40.771216
 272	1.3600e-001	-212.814331	-40.945144
 273	1.3650e-001	-215.927124	-41.102767
 274	1.3700e-001	-219.024658	-41.254954
 275	1.3750e-001	-221.954346	-41.350750
 276	1.3800e-001	-224.899292	-41.503617
 277	1.3850e-001	-228.042603	-41.702683
 278	1.3900e-001	-230.628967	-41.848756
 279	1.3950e-001	-233.901978	-41.970369
 280	1.4000e-001	-236.816406	-42.060731
 281	1.4050e-001	-239.952087	-42.218353
 282	1.4100e-001	-242.774963	-42.315508
 283	1.4150e-001	-246.261597	-42.437802
 284	1.4200e-001	-248.710632	-42.572324
 285	1.4250e-001	-252.128601	-42.684426
 286	1.4300e-001	-254.882813	-42.792452
 287	1.4350e-001	-257.614136	-42.920181
 288	1.4400e-001	-261.192322	-43.015297
 289	1.4450e-001	-264.083862	-43.124682
 290	1.4500e-001	-266.967773	-43.222517
 291	1.4550e-001	-270.172119	-43.331901
 292	1.4600e-001	-273.147583	-43.429056
 293	1.4650e-001	-275.863647	-43.552708
 294	1.4700e-001	-279.083252	-43.636955
 295	1.4750e-001	-281.814575	-43.734110
 296	1.4800e-001	-284.973145	-43.821754
 297	1.4850e-001	-288.497925	-43.857083
 298	1.4900e-001	-291.069031	-43.995682
 299	1.4950e-001	-293.991089	-44.089440
 300	1.5000e-001	-296.958923	-44.200863
 301	1.5050e-001	-299.995422	-44.301415
 302	1.5100e-001	-296.798706	-44.257254
 303	1.5150e-001	-294.052124	-44.203580
 304	1.5200e-001	-290.977478	-44.122052
 305	1.5250e-001	-287.818909	-44.026935
 306	1.5300e-001	-284.965515	-43.969185
 307	1.5350e-001	-282.028198	-43.874747
 308	1.5400e-001	-278.663635	-43.838059
 309	1.5450e-001	-275.886536	-43.765363
 310	1.5500e-001	-272.994995	-43.693346
 311	1.5550e-001	-269.775391	-43.605702
 312	1.5600e-001	-266.769409	-43.493600
 313	1.5650e-001	-263.931274	-43.422942
 314	1.5700e-001	-260.734558	-43.350925
 315	1.5750e-001	-258.049011	-43.258525
 316	1.5800e-001	-254.913330	-43.158652
 317	1.5850e-001	-251.754761	-43.081200
 318	1.5900e-001	-249.023438	-42.996954
 319	1.5950e-001	-245.758057	-42.944639
 320	1.6000e-001	-242.713928	-42.830499
 321	1.6050e-001	-239.891052	-42.723832
 322	1.6100e-001	-236.877441	-42.669479
 323	1.6150e-001	-233.695984	-42.588630
 324	1.6200e-001	-230.865479	-42.481963
 325	1.6250e-001	-228.027344	-42.392961
 326	1.6300e-001	-224.609375	-42.295126
 327	1.6350e-001	-222.076416	-42.219032
 328	1.6400e-001	-218.994141	-42.151092
 329	1.6450e-001	-215.789795	-42.027440
 330	1.6500e-001	-212.829590	-41.881367
 331	1.6550e-001	-209.869385	-41.794403
 332	1.6600e-001	-206.741333	-41.706760
 333	1.6650e-001	-204.353333	-41.623872
 334	1.6700e-001	-200.866699	-41.500220
 335	1.6750e-001	-197.814941	-41.403065
 336	1.6800e-001	-194.885254	-41.280092
 337	1.6850e-001	-191.764832	-41.172066
 338	1.6900e-001	-188.789368	-41.004932
 339	1.6950e-001	-185.607910	-40.931556
 340	1.7000e-001	-182.945251	-40.858180
 341	1.7050e-001	-179.924011	-40.750834
 342	1.7100e-001	-176.780701	-40.605441
 343	1.7150e-001	-173.797607	-40.486545
 344	1.7200e-001	-170.707703	-40.380557
 345	1.7250e-001	-167.869568	-40.224293
 346	1.7300e-001	-165.145874	-40.104718
 347	1.7350e-001	-161.750793	-39.982425
 348	1.7400e-001	-158.782959	-39.836352
 349	1.7450e-001	-155.853271	-39.675333
 350	1.7500e-001	-152.481079	-39.567307
 351	1.7550e-001	-149.780273	-39.417158
 352	1.7600e-001	-146.881104	-39.260894
 353	1.7650e-001	-143.920898	-39.118898
 354	1.7700e-001	-140.838623	-38.956520
 355	1.7750e-001	-138.023376	-38.815883
 356	1.7800e-001	-134.796143	-38.656222
 357	1.7850e-001	-131.820679	-38.461232
 358	1.7900e-001	-128.677368	-38.319915
 359	1.7950e-001	-126.091003	-38.165011
 360	1.8000e-001	-122.863770	-37.941486
 361	1.8050e-001	-119.827271	-37.732228
 362	1.8100e-001	-117.042542	-37.544712
 363	1.8150e-001	-113.868713	-37.346325
 364	1.8200e-001	-110.855103	-37.129594
 365	1.8250e-001	-107.788086	-36.899955
 366	1.8300e-001	-104.835510	-36.675750
 367	1.8350e-001	-101.997375	-36.427087
 368	1.8400e-001	-98.907471	-36.193371
 369	1.8450e-001	-96.031189	-35.875409
 370	1.8500e-001	-93.109131	-35.594814
 371	1.8550e-001	-89.729309	-35.329845
 372	1.8600e-001	-87.059021	-35.009165
 373	1.8650e-001	-84.060669	-34.682370
 374	1.8700e-001	-80.902100	-34.365767
 375	1.8750e-001	-78.010559	-33.981902
 376	1.8800e-001	-74.981689	-33.592601
 377	1.8850e-001	-71.823120	-33.210095
 378	1.8900e-001	-68.969727	-32.737907
 379	1.8950e-001	-65.979004	-32.273193
 380	1.9000e-001	-63.140869	-31.773149
 381	1.9050e-001	-59.883118	-31.211959
 382	1.9100e-001	-57.014465	-30.667754
 383	1.9150e-001	-54.077148	-30.037264
 384	1.9200e-001	-50.941467	-29.387751
 385	1.9250e-001	-48.156738	-28.714459
 386	1.9300e-001	-45.112610	-27.999723
 387	1.9350e-001	-41.969299	-27.222481
 388	1.9400e-001	-38.970947	-26.418742
 389	1.9450e-001	-35.942078	-25.591904
 390	1.9500e-001	-33.073425	-24.741287
 391	1.9550e-001	-30.151367	-23.817972
 392	1.9600e-001	-27.084351	-22.846420
 393	1.9650e-001	-24.032593	-21.795378
 394	1.9700e-001	-21.469116	-20.747053
 395	1.9750e-001	-18.089294	-19.678345
 396	1.9800e-001	-15.205383	-18.478512
 397	1.9850e-001	-12.413025	-17.398935
 398	1.9900e-001	-9.117126	-16.201140
 399	1.9950e-001	-6.278992	-14.931328
 400	2.0000e-001	-2.922058	-13.639776
 401	2.0050e-001	-0.442505	-12.297947
 402	2.0100e-001	2.822876	-10.933697
 403	2.0150e-001	5.538940	-9.554501
 404	2.0200e-001	8.338928	-8.108044
 405	2.0250e-001	11.550903	-6.596363
 406	2.0300e-001	14.595032	-5.084682
 407	2.0350e-001	17.517090	-3.549222
 408	2.0400e-001	20.553589	-1.979113
 409	2.0450e-001	23.628235	-0.399491
 410	2.0500e-001	26.657104	1.178771
 411	2.0550e-001	29.571533	2.765866
 412	2.0600e-001	32.554626	4.351602
 413	2.0650e-001	35.797119	5.791266
 414	2.0700e-001	38.917542	7.211906
 415	2.0750e-001	41.809082	8.483756
 416	2.0800e-001	44.754028	9.640106
 417	2.0850e-001	47.767639	10.767922
 418	2.0900e-001	51.055908	11.833912
 419	2.0950e-001	53.733826	12.871366
 420	2.1000e-001	56.587219	13.917653
 421	2.1050e-001	59.982300	14.957825
 422	2.1100e-001	62.713623	15.876384
 423	2.1150e-001	65.887451	16.797659
 424	2.1200e-001	68.740845	17.771250
 425	2.1250e-001	71.563721	18.693205
 426	2.1300e-001	75.027466	19.647772
 427	2.1350e-001	78.079224	20.558177
 428	2.1400e-001	80.497742	21.461109
 429	2.1450e-001	84.022522	22.362003
 430	2.1500e-001	86.753845	23.254744
 431	2.1550e-001	89.729309	24.065277
 432	2.1600e-001	92.872620	24.999461
 433	2.1650e-001	95.893860	25.858232
 434	2.1700e-001	98.617554	26.765240
 435	2.1750e-001	102.188110	27.603628
 436	2.1800e-001	104.919434	28.438620
 437	2.1850e-001	107.902527	29.268855
 438	2.1900e-001	110.801697	30.081426
 439	2.1950e-001	113.899231	30.872935
 440	2.2000e-001	116.569519	31.608733
 441	2.2050e-001	119.956970	32.371707
 442	2.2100e-001	123.046875	33.058587
 443	2.2150e-001	125.450134	33.716933
 444	2.2200e-001	128.952026	34.362370
 445	2.2250e-001	131.919861	34.933071
 446	2.2300e-001	134.788513	35.482032
 447	2.2350e-001	137.863159	36.000420
 448	2.2400e-001	141.181946	36.472608
 449	2.2450e-001	143.768311	36.891802
 450	2.2500e-001	147.033691	37.302164
 451	2.2550e-001	149.726868	37.637791
 452	2.2600e-001	152.763367	37.959150
 453	2.2650e-001	156.188965	38.297495
 454	2.2700e-001	158.897400	38.580128
 455	2.2750e-001	161.903381	38.769683
 456	2.2800e-001	165.092468	39.025140
 457	2.2850e-001	168.113708	39.249344
 458	2.2900e-001	170.875549	39.428708
 459	2.2950e-001	174.118042	39.623698
 460	2.3000e-001	177.299500	39.808496
 461	2.3050e-001	179.939270	39.990577
 462	2.3100e-001	183.036804	40.204591
 463	2.3150e-001	186.050415	40.345228
 464	2.3200e-001	188.819885	40.460727
 465	2.3250e-001	191.963196	40.600685
 466	2.3300e-001	195.137024	40.761025
 467	2.3350e-001	197.761536	40.884677
 468	2.3400e-001	201.316833	41.024635
 469	2.3450e-001	204.254150	41.171387
 470	2.3500e-001	206.893921	41.290962
 471	2.3550e-001	210.258484	41.418012
 472	2.3600e-001	213.073730	41.543022
 473	2.3650e-001	215.904236	41.631345
 474	2.3700e-001	218.940735	41.727142
 475	2.3750e-001	222.038269	41.850114
 476	2.3800e-001	224.876404	42.002981
 477	2.3850e-001	228.134155	42.115763
 478	2.3900e-001	231.201172	42.197971
 479	2.3950e-001	234.077454	42.305997
 480	2.4000e-001	237.174988	42.428290
 481	2.4050e-001	240.058899	42.550583
 482	2.4100e-001	242.820740	42.650456
 483	2.4150e-001	246.261597	42.712961
 484	2.4200e-001	249.107361	42.809437
 485	2.4250e-001	251.731873	42.955510
 486	2.4300e-001	255.081177	43.082559
 487	2.4350e-001	258.171082	43.138950
 488	2.4400e-001	260.978699	43.229990
 489	2.4450e-001	264.282227	43.329863
 490	2.4500e-001	267.189026	43.424980
 491	2.4550e-001	269.836426	43.511944
 492	2.4600e-001	273.361206	43.634237
 493	2.4650e-001	276.092529	43.717804
 494	2.4700e-001	278.854370	43.823792
 495	2.4750e-001	281.929016	43.910756
 496	2.4800e-001	285.209656	43.960353
 497	2.4850e-001	287.551880	44.050034
 498	2.4900e-001	291.221619	44.140396
 499	2.4950e-001	294.029236	44.229398
 500	2.5000e-001	296.638489	44.293262
 501	2.5050e-001	300.117493	44.388379
 502	2.5100e-001	297.019958	44.362562
 503	2.5150e-001	293.525696	44.298018
 504	2.5200e-001	290.977478	44.223283
 505	2.5250e-001	288.124084	44.173686
 506	2.5300e-001	285.018921	44.061584
 507	2.5350e-001	281.784058	44.017423
 508	2.5400e-001	278.915405	43.929100
 509	2.5450e-001	275.733948	43.855724
 510	2.5500e-001	273.155212	43.789142
 511	2.5550e-001	269.943237	43.730713
 512	2.5600e-001	266.967773	43.643070
 513	2.5650e-001	263.977051	43.572411
 514	2.5700e-001	261.070251	43.469141
 515	2.5750e-001	257.972717	43.386933
 516	2.5800e-001	255.126953	43.294534
 517	2.5850e-001	252.143860	43.270755
 518	2.5900e-001	248.924255	43.193302
 519	2.5950e-001	246.070862	43.099544
 520	2.6000e-001	243.156433	43.001709
 521	2.6050e-001	239.624023	42.920181
 522	2.6100e-001	237.098694	42.835934
 523	2.6150e-001	233.833313	42.765276
 524	2.6200e-001	230.865479	42.651815
 525	2.6250e-001	228.057861	42.631433
 526	2.6300e-001	225.135803	42.542430
 527	2.6350e-001	221.839905	42.426252
 528	2.6400e-001	218.986511	42.340646
 529	2.6450e-001	216.026306	42.251644
 530	2.6500e-001	212.730408	42.152451
 531	2.6550e-001	209.953308	42.054616
 532	2.6600e-001	206.962585	41.973767
 533	2.6650e-001	204.002380	41.892238
 534	2.6700e-001	201.156616	41.793724
 535	2.6750e-001	198.036194	41.693171
 536	2.6800e-001	194.885254	41.593978
 537	2.6850e-001	192.039490	41.468288
 538	2.6900e-001	189.079285	41.414615
 539	2.6950e-001	185.722351	41.312703
 540	2.7000e-001	182.853699	41.223022
 541	2.7050e-001	180.000305	41.083064
 542	2.7100e-001	176.918030	40.997459
 543	2.7150e-001	173.881531	40.886715
 544	2.7200e-001	170.982361	40.773934
 545	2.7250e-001	167.907715	40.678817
 546	2.7300e-001	164.916992	40.532065
 547	2.7350e-001	161.949158	40.414527
 548	2.7400e-001	158.912659	40.358816
 549	2.7450e-001	155.868530	40.243996
 550	2.7500e-001	153.114319	40.145482
 551	2.7550e-001	149.902344	39.990577
 552	2.7600e-001	147.003174	39.880513
 553	2.7650e-001	143.821716	39.762976
 554	2.7700e-001	141.067505	39.632530
 555	2.7750e-001	138.092041	39.465396
 556	2.7800e-001	135.093689	39.335629
 557	2.7850e-001	131.904602	39.243230
 558	2.7900e-001	129.051208	39.119578
 559	2.7950e-001	125.976563	38.978261
 560	2.8000e-001	123.085022	38.832868
 561	2.8050e-001	120.018005	38.729598
 562	2.8100e-001	116.950989	38.547517
 563	2.8150e-001	113.777161	38.385139
 564	2.8200e-001	110.832214	38.228196
 565	2.8250e-001	108.032227	38.063779
 566	2.8300e-001	104.995728	37.917707
 567	2.8350e-001	102.302551	37.768916
 568	2.8400e-001	99.006653	37.575965
 569	2.8450e-001	95.886230	37.414266
 570	2.8500e-001	93.070984	37.217917
 571	2.8550e-001	89.874268	37.027683
 572	2.8600e-001	87.104797	36.848320
 573	2.8650e-001	84.190369	36.629551
 574	2.8700e-001	81.123352	36.423011
 575	2.8750e-001	78.132629	36.177066
 576	2.8800e-001	74.989319	35.986832
 577	2.8850e-001	72.135925	35.661396
 578	2.8900e-001	69.137573	35.403901
 579	2.8950e-001	66.146851	35.130779
 580	2.9000e-001	63.133240	34.835916
 581	2.9050e-001	60.234070	34.526786
 582	2.9100e-001	57.159424	34.208824
 583	2.9150e-001	54.161072	33.834470
 584	2.9200e-001	50.987244	33.464873
 585	2.9250e-001	48.141479	33.038205
 586	2.9300e-001	44.967651	32.573491
 587	2.9350e-001	42.343140	32.093150
 588	2.9400e-001	39.138794	31.578839
 589	2.9450e-001	36.094666	31.029878
 590	2.9500e-001	33.287048	30.480238
 591	2.9550e-001	29.968262	29.857901
 592	2.9600e-001	27.214050	29.196158
 593	2.9650e-001	24.337769	28.534416
 594	2.9700e-001	21.095276	27.827833
 595	2.9750e-001	18.096924	27.068256
 596	2.9800e-001	15.205383	26.253647
 597	2.9850e-001	12.466431	25.434961
 598	2.9900e-001	9.193420	24.560564
 599	2.9950e-001	6.271362	23.697038
 600	3.0000e-001	2.784729	22.713257
 601	3.0050e-001	0.267029	21.764125
 602	3.0100e-001	-2.578735	20.751808
 603	3.0150e-001	-5.630493	19.740171
 604	3.0200e-001	-8.750916	18.709511
 605	3.0250e-001	-11.436462	17.667300
 606	3.0300e-001	-14.739990	16.625090
 607	3.0350e-001	-17.662048	15.540756
 608	3.0400e-001	-20.576477	14.542028
 609	3.0450e-001	-23.872375	13.530391
 610	3.0500e-001	-26.458740	12.431110
 611	3.0550e-001	-29.472351	11.413359
 612	3.0600e-001	-32.608032	10.420745
 613	3.0650e-001	-35.758972	9.457346
 614	3.0700e-001	-38.391113	8.538108
 615	3.0750e-001	-41.885376	7.552289
 616	3.0800e-001	-44.532776	6.609951
 617	3.0850e-001	-47.477722	5.665575
 618	3.0900e-001	-50.659180	4.756529
 619	3.0950e-001	-53.756714	3.735380
 620	3.1000e-001	-56.472778	2.710834
 621	3.1050e-001	-59.608459	1.677456
 622	3.1100e-001	-62.599182	0.643398
 623	3.1150e-001	-65.528870	-0.400850
 624	3.1200e-001	-68.664551	-1.460725
 625	3.1250e-001	-71.533203	-2.564762
 626	3.1300e-001	-74.447632	-3.662683
 627	3.1350e-001	-77.606201	-4.790499
 628	3.1400e-001	-80.650330	-5.935979
 629	3.1450e-001	-83.518982	-7.124262
 630	3.1500e-001	-86.532593	-8.309148
 631	3.1550e-001	-89.599609	-9.505584
 632	3.1600e-001	-92.330933	-10.720364
 633	3.1650e-001	-95.855713	-11.967755
 634	3.1700e-001	-98.480225	-13.205635
 635	3.1750e-001	-101.539612	-14.448270
 636	3.1800e-001	-104.461670	-15.708570
 637	3.1850e-001	-107.582092	-16.976344
 638	3.1900e-001	-110.191345	-18.254308
 639	3.1950e-001	-113.739014	-19.487432
 640	3.2000e-001	-116.615295	-20.656691
 641	3.2050e-001	-119.331360	-21.871471
 642	3.2100e-001	-122.650146	-23.111389
 643	3.2150e-001	-125.679016	-24.288122
 644	3.2200e-001	-128.303528	-25.460779
 645	3.2250e-001	-131.668091	-26.587915
 646	3.2300e-001	-134.506226	-27.693310
 647	3.2350e-001	-137.199402	-28.736879
 648	3.2400e-001	-140.785217	-29.807625
 649	3.2450e-001	-143.669128	-30.777818
 650	3.2500e-001	-146.553040	-31.750049
 651	3.2550e-001	-149.971008	-32.680837
 652	3.2600e-001	-152.717590	-33.562707
 653	3.2650e-001	-155.563354	-34.366446
 654	3.2700e-001	-158.775330	-35.143008
 655	3.2750e-001	-161.720276	-35.825133
 656	3.2800e-001	-164.337158	-36.441355
 657	3.2850e-001	-168.106079	-37.003904
 658	3.2900e-001	-170.867920	-37.493757
 659	3.2950e-001	-173.728943	-37.936051
 660	3.3000e-001	-177.139282	-38.328068
 661	3.3050e-001	-179.878235	-38.686795
 662	3.3100e-001	-182.884216	-38.950405
 663	3.3150e-001	-185.821533	-39.267009
 664	3.3200e-001	-188.903809	-39.515672
 665	3.3250e-001	-191.925049	-39.736479
 666	3.3300e-001	-195.114136	-39.958645
 667	3.3350e-001	-197.906494	-40.177414
 668	3.3400e-001	-200.653076	-40.349304
 669	3.3450e-001	-204.101563	-40.589814
 670	3.3500e-001	-207.061768	-40.775293
 671	3.3550e-001	-209.846497	-40.883998
 672	3.3600e-001	-212.928772	-41.011047
 673	3.3650e-001	-216.087341	-41.192448
 674	3.3700e-001	-218.833923	-41.348712
 675	3.3750e-001	-222.129822	-41.500899
 676	3.3800e-001	-224.906921	-41.629987
 677	3.3850e-001	-227.684021	-41.770624
 678	3.3900e-001	-230.957031	-41.916017
 679	3.3950e-001	-233.879089	-42.036272
 680	3.4000e-001	-236.602783	-42.164000
 681	3.4050e-001	-240.058899	-42.246209
 682	3.4100e-001	-242.736816	-42.376655
 683	3.4150e-001	-245.788574	-42.510498
 684	3.4200e-001	-249.015808	-42.642982
 685	3.4250e-001	-252.159119	-42.753726
 686	3.4300e-001	-254.623413	-42.901157
 687	3.4350e-001	-257.942200	-42.986762
 688	3.4400e-001	-260.993958	-43.081879
 689	3.4450e-001	-263.610840	-43.204852
 690	3.4500e-001	-267.204285	-43.301328
 691	3.4550e-001	-270.339966	-43.384895
 692	3.4600e-001	-272.827148	-43.512623
 693	3.4650e-001	-276.046753	-43.590076
 694	3.4700e-001	-279.113770	-43.698781
 695	3.4750e-001	-281.791687	-43.749057
 696	3.4800e-001	-285.110474	-43.886297
 697	3.4850e-001	-287.940979	-43.979376
 698	3.4900e-001	-290.832520	-44.075172
 699	3.4950e-001	-294.212341	-44.188633
 700	3.5000e-001	-297.225952	-44.284430
 701	3.5050e-001	-299.926758	-44.388379
 702	3.5100e-001	-296.966553	-44.349653
 703	3.5150e-001	-294.151306	-44.242307
 704	3.5200e-001	-290.588379	-44.179801
 705	3.5250e-001	-287.834167	-44.085364
 706	3.5300e-001	-284.713745	-44.016064
 707	3.5350e-001	-281.784058	-43.946765
 708	3.5400e-001	-278.869629	-43.907359
 709	3.5450e-001	-276.123047	-43.808166
 710	3.5500e-001	-272.827148	-43.738187
 711	3.5550e-001	-269.882202	-43.716446
 712	3.5600e-001	-266.784668	-43.592793
 713	3.5650e-001	-263.931274	-43.478653
 714	3.5700e-001	-260.963440	-43.418865
 715	3.5750e-001	-258.056641	-43.317634
 716	3.5800e-001	-254.753113	-43.242899
 717	3.5850e-001	-251.953125	-43.159332
 718	3.5900e-001	-248.863220	-43.081200
 719	3.5950e-001	-246.017456	-42.970457
 720	3.6000e-001	-242.950439	-42.905913
 721	3.6050e-001	-239.845276	-42.802643
 722	3.6100e-001	-236.679077	-42.698014
 723	3.6150e-001	-234.008789	-42.654532
 724	3.6200e-001	-230.796814	-42.541751
 725	3.6250e-001	-227.928162	-42.459543
 726	3.6300e-001	-224.853516	-42.370540
 727	3.6350e-001	-222.045898	-42.269309
 728	3.6400e-001	-218.811035	-42.155848
 729	3.6450e-001	-216.072083	-42.087907
 730	3.6500e-001	-212.814331	-41.988034
 731	3.6550e-001	-209.457397	-41.837885
 732	3.6600e-001	-206.779480	-41.774700
 733	3.6650e-001	-203.903198	-41.702004
 734	3.6700e-001	-201.049805	-41.581749
 735	3.6750e-001	-197.814941	-41.468288
 736	3.6800e-001	-194.984436	-41.369774
 737	3.6850e-001	-191.879272	-41.240686
 738	3.6900e-001	-188.812256	-41.127225
 739	3.6950e-001	-186.027527	-41.025314
 740	3.7000e-001	-182.678223	-40.910495
 741	3.7050e-001	-179.985046	-40.794995
 742	3.7100e-001	-176.887512	-40.685611
 743	3.7150e-001	-173.812866	-40.591853
 744	3.7200e-001	-170.822144	-40.464124
 745	3.7250e-001	-167.869568	-40.322807
 746	3.7300e-001	-165.000916	-40.182170
 747	3.7350e-001	-161.926270	-40.049006
 748	3.7400e-001	-158.782959	-39.904972
 749	3.7450e-001	-155.899048	-39.761617
 750	3.7500e-001	-153.045654	-39.630492
 751	3.7550e-001	-149.955750	-39.487816
 752	3.7600e-001	-146.858215	-39.341744
 753	3.7650e-001	-143.707275	-39.205183
 754	3.7700e-001	-140.625000	-39.029896
 755	3.7750e-001	-138.023376	-38.887220
 756	3.7800e-001	-134.742737	-38.712613
 757	3.7850e-001	-131.744385	-38.567220
 758	3.7900e-001	-128.974915	-38.321954
 759	3.7950e-001	-126.037598	-38.211210
 760	3.8000e-001	-122.863770	-37.995159
 761	3.8050e-001	-119.697571	-37.806963
 762	3.8100e-001	-116.989136	-37.616050
 763	3.8150e-001	-113.967896	-37.369425
 764	3.8200e-001	-110.824585	-37.176473
 765	3.8250e-001	-107.810974	-37.021569
 766	3.8300e-001	-105.102539	-36.765432
 767	3.8350e-001	-102.066040	-36.524922
 768	3.8400e-001	-99.060059	-36.269465
 769	3.8450e-001	-96.160889	-36.009932
 770	3.8500e-001	-92.987061	-35.730695
 771	3.8550e-001	-89.859009	-35.446024
 772	3.8600e-001	-86.738586	-35.130099
 773	3.8650e-001	-83.839417	-34.756426
 774	3.8700e-001	-80.764771	-34.433028
 775	3.8750e-001	-78.041077	-34.105554
 776	3.8800e-001	-74.920654	-33.712856
 777	3.8850e-001	-72.074890	-33.303174
 778	3.8900e-001	-68.778992	-32.854086
 779	3.8950e-001	-66.131592	-32.375104
 780	3.9000e-001	-62.957764	-31.892046
 781	3.9050e-001	-60.058594	-31.353955
 782	3.9100e-001	-57.151794	-30.771024
 783	3.9150e-001	-54.138184	-30.188093
 784	3.9200e-001	-50.956726	-29.537221
 785	3.9250e-001	-47.912598	-28.846264
 786	3.9300e-001	-44.944763	-28.151230
 787	3.9350e-001	-42.236328	-27.395730
 788	3.9400e-001	-39.115906	-26.581800
 789	3.9450e-001	-36.026001	-25.775344
 790	3.9500e-001	-33.020020	-24.889397
 791	3.9550e-001	-30.158997	-23.972877
 792	3.9600e-001	-26.992798	-23.002684
 793	3.9650e-001	-24.208069	-22.029094
 794	3.9700e-001	-21.392822	-20.975333
 795	3.9750e-001	-18.035889	-19.875373
 796	3.9800e-001	-15.251160	-18.723778
 797	3.9850e-001	-12.321472	-17.588489
 798	3.9900e-001	-9.201050	-16.400206
 799	3.9950e-001	-6.202698	-15.134471
 800	4.0000e-001	-3.311157	-13.867377
 801	4.0050e-001	-0.335693	-12.529625

Center data before PMax,±Pr and ±Vc Calc.

PMax (µC/cm2):	4.44e+001
Pr (µC/cm2):	2.17e+001
-Pr (µC/cm2):	-1.25e+001
Vc:	2.44e-001
-Vc:	-6.44e-001
C (Max-Eff) (nF):	9.17e-001
K (Eff):	1.67e+003
Vert. (±Pr) Shift (µC/cm2):	4.57e+000
Horiz. Shift (±Vc):	-2.00e-001
Offset (µC/cm2):	-5.92e+000

A (Loop Area - µC/cm2·Volts):	6.79e+001



Hysteresis Version: 5.16.2 - Radiant Technologies, Inc., 1999 - 3/20/18

