»»»»»»»»»»»»»»»»»»»»»»»»»»»»»»»»»»»» Hysteresis ««««««««««««««««««««««««««««««««««««
»»»  Executed Version:	5.16.2
»»»  Vision Version:	5.16.10 (R)
»»»  Vision Compiled:	4/26/18
»»»  Driver Version:	5.16.6
»»»  Windows Version:	Windows 8
»»»  Processor Information:	x86 (AMD or Intel) - 8 Processors
»»»  Tester Name:	PPM21016-863
»»»  Tester S/N:	PPM21016-863
»»»  Internal Amp Type:	 RTI ML200V    
»»»  Internal Amp S/N:	 iAB2-0000     
»»»  Execution Count:	1
»»»»»»»»»»»»»»»»»»»»»»»»»»»»»»»»»»»»»»»»»»««««««««««««««««««««««««««««««««««««««««««

Stored:	5/23/2018 - 9:3:45
Configured:	05/23/18 06:37:56 AM
Executed:	05/23/18 09:03:19 AM

»»»»»»»»»»»»»»»»»»»»»»»»»»»»»»»»»»» Sample Info ««««««««««««««««««««««««««««««««««««
Sample Name:	Internal Reference Cap.
Lot Name:	N/A
Wafer Name:	N/A
Die Row/Column:	0/0
Capacitor Number:	0
Sample Area (cm2):	7.85e-005
Sample Thickness (µm):	1.00e-001

Mux Loop Adjustment:	Disabled

Amplifier:	Internal

»»»»»»»»»»»»»»»»»»»»»»»»»»»»»»»»»»» Tester Info «««««««««««««««««««««««««««««««««««
Tester Name:	PPM21016-863
Tester Serial Number:	PPM21016-863
Return Signal Amp. Level:	0.21 [Index: 2]

»»»»»»»»»»»»»»»»»»»»»»»»»»»»»»»» Hysteresis Info ««««««««««««««««««««««««««««««««««
Task Name:	Hyst-1
Field (kV/cm):	0.03
Field:	300.00 (kV/cm)
Hysteresis Period (ms):	4.00e-001
Preset:	Enabled
Preset Delay (ms):	1.00e+003
Profile:	Double Bipolar

»»»»»»»»»»»»»»»»»»»»»»»»»»»»»»»»»»»»»» Data «««««««««««««««««««««««««««««««««««««««
Points:	801

Valid Data

Point	Time (ms)	Field (kV/cm)	Measured Polarization
   1	5.0000e-004	0.373840	-40.979402
   2	1.0000e-003	3.074646	-40.833038
   3	1.5000e-003	6.294250	-40.603735
   4	2.0000e-003	9.086609	-40.486644
   5	2.5000e-003	12.039185	-40.189038
   6	3.0000e-003	15.441895	-39.993886
   7	3.5000e-003	17.921448	-39.886553
   8	4.0000e-003	21.369934	-39.598704
   9	4.5000e-003	23.948669	-39.315734
  10	5.0000e-003	26.771545	-38.998613
  11	5.5000e-003	29.983521	-38.715643
  12	6.0000e-003	33.088684	-38.315582
  13	6.5000e-003	36.003113	-37.930158
  14	7.0000e-003	38.848877	-37.461794
  15	7.5000e-003	41.725159	-36.773884
  16	8.0000e-003	44.845581	-35.973763
  17	8.5000e-003	47.416687	-34.710156
  18	9.0000e-003	50.559998	-33.427034
  19	9.5000e-003	53.138733	-31.582851
  20	1.0000e-002	56.076050	-29.480092
  21	1.0500e-002	58.944702	-27.099242
  22	1.1000e-002	61.912537	-24.162211
  23	1.1500e-002	64.880371	-21.064178
  24	1.2000e-002	66.543579	-17.692934
  25	1.2500e-002	70.648193	-13.916750
  26	1.3000e-002	73.852539	-10.130809
  27	1.3500e-002	76.675415	-5.969200
  28	1.4000e-002	79.795837	-1.529501
  29	1.4500e-002	82.466125	2.758956
  30	1.5000e-002	85.807800	7.144989
  31	1.5500e-002	88.470459	11.389537
  32	1.6000e-002	91.445923	15.556024
  33	1.6500e-002	94.718933	19.581026
  34	1.7000e-002	97.717285	23.357210
  35	1.7500e-002	101.158142	26.723576
  36	1.8000e-002	104.179382	29.519123
  37	1.8500e-002	107.536316	31.880457
  38	1.9000e-002	110.778809	33.739277
  39	1.9500e-002	113.807678	35.193156
  40	2.0000e-002	116.485596	36.251854
  41	2.0500e-002	119.850159	37.149551
  42	2.1000e-002	122.924805	37.978946
  43	2.1500e-002	125.717163	38.671734
  44	2.2000e-002	128.677368	39.218158
  45	2.2500e-002	131.858826	39.808492
  46	2.3000e-002	135.055542	40.354917
  47	2.3500e-002	137.901306	40.828159
  48	2.4000e-002	141.235352	41.286766
  49	2.4500e-002	144.317627	41.740493
  50	2.5000e-002	146.942139	42.174705
  51	2.5500e-002	150.039673	42.516221
  52	2.6000e-002	153.053284	42.726009
  53	2.6500e-002	155.921936	42.979706
  54	2.7000e-002	158.538818	43.648100
  55	2.7500e-002	162.269592	43.774949
  56	2.8000e-002	165.168762	43.945706
  57	2.8500e-002	167.816162	44.267707
  58	2.9000e-002	171.012878	44.414070
  59	2.9500e-002	174.255371	44.662889
  60	3.0000e-002	177.345276	44.906828
  61	3.0500e-002	180.023193	45.184919
  62	3.1000e-002	182.991028	45.341041
  63	3.1500e-002	186.210632	45.492283
  64	3.2000e-002	188.926697	45.741101
  65	3.2500e-002	191.925049	46.033829
  66	3.3000e-002	195.281982	46.082617
  67	3.3500e-002	197.975159	46.297284
  68	3.4000e-002	200.973511	46.477799
  69	3.4500e-002	204.078674	46.711981
  70	3.5000e-002	206.970215	46.824193
  71	3.5500e-002	210.067749	47.009587
  72	3.6000e-002	213.188171	47.146193
  73	3.6500e-002	215.606689	47.165708
  74	3.7000e-002	219.253540	47.516981
  75	3.7500e-002	222.145081	47.624315
  76	3.8000e-002	225.120544	47.790193
  77	3.8500e-002	228.279114	47.868254
  78	3.9000e-002	231.071472	48.043891
  79	3.9500e-002	234.062195	48.229285
  80	4.0000e-002	237.213135	48.321982
  81	4.0500e-002	240.104675	48.478103
  82	4.1000e-002	243.362427	48.663497
  83	4.1500e-002	245.994568	48.853770
  84	4.2000e-002	249.755859	49.151376
  85	4.2500e-002	252.388000	49.034285
  86	4.3000e-002	255.126953	49.126982
  87	4.3500e-002	258.033752	49.331891
  88	4.4000e-002	261.161804	49.414831
  89	4.4500e-002	264.030457	49.575831
  90	4.5000e-002	266.914368	49.785619
  91	4.5500e-002	270.187378	49.844164
  92	4.6000e-002	273.048401	49.941740
  93	4.6500e-002	276.062012	50.122255
  94	4.7000e-002	278.961182	50.258862
  95	4.7500e-002	282.203674	50.502801
  96	4.8000e-002	285.255432	50.556468
  97	4.8500e-002	288.017273	50.624771
  98	4.9000e-002	291.236877	50.805286
  99	4.9500e-002	294.006348	51.000438
 100	5.0000e-002	297.073364	51.122407
 101	5.0500e-002	300.559998	51.263892
 102	5.1000e-002	297.126770	51.278529
 103	5.1500e-002	294.075012	51.200468
 104	5.2000e-002	290.924072	51.185832
 105	5.2500e-002	287.933350	51.049226
 106	5.3000e-002	284.774780	50.927256
 107	5.3500e-002	281.867981	50.893104
 108	5.4000e-002	278.892517	50.824801
 109	5.4500e-002	275.222778	50.727225
 110	5.5000e-002	273.216248	50.824801
 111	5.5500e-002	270.042419	50.727225
 112	5.6000e-002	266.761780	50.585740
 113	5.6500e-002	263.824463	50.551589
 114	5.7000e-002	261.810303	50.536953
 115	5.7500e-002	258.178711	50.278377
 116	5.8000e-002	254.997253	50.161286
 117	5.8500e-002	252.265930	50.175922
 118	5.9000e-002	249.038696	50.156407
 119	5.9500e-002	246.238708	50.166165
 120	6.0000e-002	243.400574	49.936861
 121	6.0500e-002	240.020752	49.971013
 122	6.1000e-002	236.991882	49.683164
 123	6.1500e-002	233.818054	49.644134
 124	6.2000e-002	230.995178	49.590467
 125	6.2500e-002	228.103638	49.488013
 126	6.3000e-002	225.044250	49.444103
 127	6.3500e-002	221.969604	49.400194
 128	6.4000e-002	219.017029	49.219679
 129	6.4500e-002	215.950012	49.219679
 130	6.5000e-002	213.432312	49.044043
 131	6.5500e-002	210.006714	48.931830
 132	6.6000e-002	206.909180	48.844012
 133	6.6500e-002	204.017639	48.678133
 134	6.7000e-002	200.927734	48.658618
 135	6.7500e-002	197.837830	48.497618
 136	6.8000e-002	194.740295	48.395164
 137	6.8500e-002	192.039490	48.307345
 138	6.9000e-002	188.880920	48.204891
 139	6.9500e-002	186.019897	48.039012
 140	7.0000e-002	183.151245	47.902406
 141	7.0500e-002	180.137634	47.809709
 142	7.1000e-002	177.078247	47.697496
 143	7.1500e-002	174.171448	47.629193
 144	7.2000e-002	171.638489	47.331587
 145	7.2500e-002	166.732788	47.292557
 146	7.3000e-002	164.878845	47.185223
 147	7.3500e-002	162.094116	47.116920
 148	7.4000e-002	158.836365	47.082769
 149	7.4500e-002	156.158447	46.843708
 150	7.5000e-002	152.999878	46.663193
 151	7.5500e-002	149.993896	46.316799
 152	7.6000e-002	147.087097	46.482678
 153	7.6500e-002	143.707275	46.375344
 154	7.7000e-002	140.914917	46.131405
 155	7.7500e-002	138.084412	46.053344
 156	7.8000e-002	134.254456	45.936253
 157	7.8500e-002	131.797791	45.828920
 158	7.9000e-002	129.058838	45.599616
 159	7.9500e-002	125.984192	45.443495
 160	8.0000e-002	123.039246	45.233707
 161	8.0500e-002	120.040894	45.097101
 162	8.1000e-002	116.950989	44.950737
 163	8.1500e-002	113.777161	44.901949
 164	8.2000e-002	110.916138	44.711677
 165	8.2500e-002	108.009338	44.511646
 166	8.3000e-002	105.133057	44.238434
 167	8.3500e-002	102.027893	44.155494
 168	8.4000e-002	98.762512	44.004252
 169	8.4500e-002	95.718384	43.652979
 170	8.5000e-002	93.040466	43.623706
 171	8.5500e-002	89.881897	43.350494
 172	8.6000e-002	87.089539	43.155342
 173	8.6500e-002	84.060669	43.062645
 174	8.7000e-002	81.558228	42.579645
 175	8.7500e-002	77.659607	42.433281
 176	8.8000e-002	74.607849	42.345463
 177	8.8500e-002	71.777344	42.072251
 178	8.9000e-002	68.847656	41.847827
 179	8.9500e-002	66.085815	41.559978
 180	9.0000e-002	63.049316	41.291644
 181	9.0500e-002	59.326172	41.076978
 182	9.1000e-002	57.044983	40.652523
 183	9.1500e-002	53.848267	40.408583
 184	9.2000e-002	50.933838	40.052432
 185	9.2500e-002	47.828674	39.720674
 186	9.3000e-002	44.944763	39.369401
 187	9.3500e-002	41.915894	38.901037
 188	9.4000e-002	39.054871	38.461946
 189	9.4500e-002	35.896301	37.856976
 190	9.5000e-002	33.088684	37.281278
 191	9.5500e-002	29.899597	36.759248
 192	9.6000e-002	27.191162	35.885944
 193	9.6500e-002	24.574280	35.061429
 194	9.7000e-002	21.278381	34.212519
 195	9.7500e-002	18.211365	33.290428
 196	9.8000e-002	14.900208	32.309791
 197	9.8500e-002	12.466431	31.016911
 198	9.9000e-002	9.300232	29.772820
 199	9.9500e-002	6.401062	28.323819
 200	1.0000e-001	3.570557	26.723576
 201	1.0050e-001	0.740051	25.079423
 202	1.0100e-001	-2.372742	22.957149
 203	1.0150e-001	-5.065918	20.839754
 204	1.0200e-001	-6.980896	18.610147
 205	1.0250e-001	-10.711670	15.980479
 206	1.0300e-001	-13.870239	13.355689
 207	1.0350e-001	-16.952515	10.472324
 208	1.0400e-001	-19.874573	7.432838
 209	1.0450e-001	-22.735596	4.071351
 210	1.0500e-001	-25.573730	0.539106
 211	1.0550e-001	-28.556824	-2.929714
 212	1.0600e-001	-31.349182	-6.544898
 213	1.0650e-001	-34.370422	-10.360112
 214	1.0700e-001	-37.696838	-14.248508
 215	1.0750e-001	-40.664673	-18.078359
 216	1.0800e-001	-43.586731	-21.791118
 217	1.0850e-001	-47.256470	-25.713666
 218	1.0900e-001	-49.438477	-29.280062
 219	1.0950e-001	-52.978516	-32.612276
 220	1.1000e-001	-55.953979	-35.544429
 221	1.1050e-001	-59.181213	-38.227764
 222	1.1100e-001	-62.461853	-40.252462
 223	1.1150e-001	-65.574646	-41.681948
 224	1.1200e-001	-68.778992	-42.535736
 225	1.1250e-001	-71.891785	-42.994342
 226	1.1300e-001	-75.950623	-43.462706
 227	1.1350e-001	-77.972412	-43.657858
 228	1.1400e-001	-81.199646	-43.887161
 229	1.1450e-001	-84.121704	-44.106707
 230	1.1500e-001	-86.914063	-44.355525
 231	1.1550e-001	-89.523315	-44.409192
 232	1.1600e-001	-93.070984	-44.614101
 233	1.1650e-001	-96.206665	-44.804374
 234	1.1700e-001	-99.784851	-44.779980
 235	1.1750e-001	-102.111816	-45.023919
 236	1.1800e-001	-104.820251	-45.321525
 237	1.1850e-001	-108.100891	-45.458132
 238	1.1900e-001	-110.862732	-45.594738
 239	1.1950e-001	-113.983154	-45.804526
 240	1.2000e-001	-116.981506	-45.863071
 241	1.2050e-001	-119.903564	-45.965526
 242	1.2100e-001	-122.993469	-46.141162
 243	1.2150e-001	-126.068115	-46.394859
 244	1.2200e-001	-128.982544	-46.482678
 245	1.2250e-001	-132.026672	-46.687587
 246	1.2300e-001	-135.078430	-46.780284
 247	1.2350e-001	-138.114929	-46.955920
 248	1.2400e-001	-141.006470	-46.999829
 249	1.2450e-001	-144.195557	-47.204739
 250	1.2500e-001	-147.239685	-47.238890
 251	1.2550e-001	-150.123596	-47.390133
 252	1.2600e-001	-153.045654	-47.434042
 253	1.2650e-001	-156.028748	-47.634072
 254	1.2700e-001	-158.599854	-47.780436
 255	1.2750e-001	-162.086487	-47.843860
 256	1.2800e-001	-165.550232	-48.165860
 257	1.2850e-001	-168.060303	-48.195133
 258	1.2900e-001	-170.997620	-48.214648
 259	1.2950e-001	-173.965454	-48.321982
 260	1.3000e-001	-177.314758	-48.458588
 261	1.3050e-001	-180.145264	-48.536648
 262	1.3100e-001	-182.731628	-48.634224
 263	1.3150e-001	-185.989380	-48.712285
 264	1.3200e-001	-189.270020	-48.643982
 265	1.3250e-001	-191.993713	-49.019649
 266	1.3300e-001	-194.831848	-49.122103
 267	1.3350e-001	-198.219299	-49.180649
 268	1.3400e-001	-200.897217	-49.268467
 269	1.3450e-001	-204.338074	-49.214800
 270	1.3500e-001	-207.229614	-49.512407
 271	1.3550e-001	-210.067749	-49.697801
 272	1.3600e-001	-213.363647	-49.751467
 273	1.3650e-001	-216.041565	-49.927104
 274	1.3700e-001	-219.146729	-50.034437
 275	1.3750e-001	-221.984863	-50.078346
 276	1.3800e-001	-225.143433	-50.097861
 277	1.3850e-001	-228.134155	-50.185680
 278	1.3900e-001	-230.834961	-50.317407
 279	1.3950e-001	-234.107971	-50.444256
 280	1.4000e-001	-237.083435	-50.546710
 281	1.4050e-001	-240.127563	-50.575983
 282	1.4100e-001	-242.858887	-50.678438
 283	1.4150e-001	-245.933533	-50.785771
 284	1.4200e-001	-248.878479	-50.844316
 285	1.4250e-001	-251.968384	-50.980923
 286	1.4300e-001	-254.844666	-51.234620
 287	1.4350e-001	-257.949829	-51.215104
 288	1.4400e-001	-261.154175	-51.337074
 289	1.4450e-001	-262.916565	-51.380983
 290	1.4500e-001	-266.906738	-51.395620
 291	1.4550e-001	-269.546509	-51.595650
 292	1.4600e-001	-273.216248	-51.624923
 293	1.4650e-001	-276.145935	-51.751771
 294	1.4700e-001	-278.770447	-51.551741
 295	1.4750e-001	-281.860352	-51.844468
 296	1.4800e-001	-284.721375	-52.034741
 297	1.4850e-001	-288.093567	-52.068893
 298	1.4900e-001	-291.007996	-52.185984
 299	1.4950e-001	-294.052124	-52.234772
 300	1.5000e-001	-297.073364	-52.298196
 301	1.5050e-001	-300.018311	-52.386014
 302	1.5100e-001	-296.768188	-52.346984
 303	1.5150e-001	-293.746948	-52.332348
 304	1.5200e-001	-290.802002	-52.239651
 305	1.5250e-001	-287.933350	-52.171347
 306	1.5300e-001	-284.973145	-52.078650
 307	1.5350e-001	-281.791687	-52.137196
 308	1.5400e-001	-278.617859	-51.942044
 309	1.5450e-001	-275.985718	-51.844468
 310	1.5500e-001	-272.720337	-51.737135
 311	1.5550e-001	-269.851685	-51.707862
 312	1.5600e-001	-267.028809	-51.742014
 313	1.5650e-001	-263.702393	-51.668832
 314	1.5700e-001	-260.681152	-51.585893
 315	1.5750e-001	-258.148193	-51.415135
 316	1.5800e-001	-253.318787	-51.405377
 317	1.5850e-001	-252.059937	-51.195589
 318	1.5900e-001	-248.580933	-51.205347
 319	1.5950e-001	-245.750427	-51.122407
 320	1.6000e-001	-243.041992	-51.058983
 321	1.6050e-001	-239.936829	-50.946771
 322	1.6100e-001	-236.747742	-50.868710
 323	1.6150e-001	-233.901978	-50.883347
 324	1.6200e-001	-232.116699	-50.849195
 325	1.6250e-001	-227.005005	-50.580862
 326	1.6300e-001	-224.563599	-50.551589
 327	1.6350e-001	-221.916199	-50.483286
 328	1.6400e-001	-219.024658	-50.210074
 329	1.6450e-001	-215.904236	-50.332043
 330	1.6500e-001	-213.119507	-50.229589
 331	1.6550e-001	-209.831238	-50.219831
 332	1.6600e-001	-206.878662	-50.136892
 333	1.6650e-001	-203.674316	-49.946619
 334	1.6700e-001	-200.569153	-49.878316
 335	1.6750e-001	-197.952271	-49.800255
 336	1.6800e-001	-194.862366	-49.736831
 337	1.6850e-001	-191.902161	-49.639255
 338	1.6900e-001	-188.964844	-49.517285
 339	1.6950e-001	-185.836792	-49.492891
 340	1.7000e-001	-182.823181	-49.380679
 341	1.7050e-001	-179.664612	-49.312376
 342	1.7100e-001	-176.620483	-49.195285
 343	1.7150e-001	-173.912048	-48.995255
 344	1.7200e-001	-170.814514	-48.956224
 345	1.7250e-001	-167.755127	-48.819618
 346	1.7300e-001	-164.916992	-48.804982
 347	1.7350e-001	-162.742615	-48.692770
 348	1.7400e-001	-158.607483	-48.585436
 349	1.7450e-001	-155.708313	-48.565921
 350	1.7500e-001	-152.893066	-48.434194
 351	1.7550e-001	-149.909973	-48.292709
 352	1.7600e-001	-146.209717	-48.185376
 353	1.7650e-001	-143.768311	-48.029254
 354	1.7700e-001	-140.693665	-47.941436
 355	1.7750e-001	-136.543274	-47.892648
 356	1.7800e-001	-134.262085	-47.804830
 357	1.7850e-001	-131.996155	-47.673102
 358	1.7900e-001	-128.883362	-47.492587
 359	1.7950e-001	-125.961304	-47.438921
 360	1.8000e-001	-122.367859	-47.302314
 361	1.8050e-001	-118.621826	-47.097405
 362	1.8100e-001	-116.600037	-47.131557
 363	1.8150e-001	-113.563538	-46.999829
 364	1.8200e-001	-110.671997	-46.951041
 365	1.8250e-001	-108.154297	-46.858344
 366	1.8300e-001	-104.835510	-46.716860
 367	1.8350e-001	-101.898193	-46.565617
 368	1.8400e-001	-98.838806	-46.433890
 369	1.8450e-001	-95.947266	-46.287526
 370	1.8500e-001	-92.689514	-46.131405
 371	1.8550e-001	-89.790344	-46.038708
 372	1.8600e-001	-86.906433	-45.916738
 373	1.8650e-001	-83.663940	-45.824041
 374	1.8700e-001	-80.787659	-45.672798
 375	1.8750e-001	-77.789307	-45.482526
 376	1.8800e-001	-74.882507	-45.433738
 377	1.8850e-001	-71.815491	-45.238586
 378	1.8900e-001	-67.893982	-45.053192
 379	1.8950e-001	-65.643311	-45.038556
 380	1.9000e-001	-62.889099	-44.819010
 381	1.9050e-001	-59.745789	-44.672646
 382	1.9100e-001	-56.816101	-44.453101
 383	1.9150e-001	-53.710938	-44.448222
 384	1.9200e-001	-50.781250	-44.233555
 385	1.9250e-001	-47.653198	-44.057919
 386	1.9300e-001	-43.807983	-43.735918
 387	1.9350e-001	-41.610718	-43.721282
 388	1.9400e-001	-38.887024	-43.604191
 389	1.9450e-001	-35.850525	-43.330979
 390	1.9500e-001	-32.791138	-43.213888
 391	1.9550e-001	-29.762268	-43.057767
 392	1.9600e-001	-26.855469	-42.877251
 393	1.9650e-001	-23.681641	-42.652827
 394	1.9700e-001	-20.790100	-42.452797
 395	1.9750e-001	-18.043518	-42.340584
 396	1.9800e-001	-14.816284	-42.047857
 397	1.9850e-001	-10.864258	-41.735614
 398	1.9900e-001	-8.613586	-41.559978
 399	1.9950e-001	-5.699158	-41.374584
 400	2.0000e-001	-2.876282	-41.135523
 401	2.0050e-001	0.122070	-40.901341
 402	2.0100e-001	2.998352	-40.720826
 403	2.0150e-001	5.821228	-40.403704
 404	2.0200e-001	9.132385	-40.135371
 405	2.0250e-001	11.993408	-39.857280
 406	2.0300e-001	14.915466	-39.506007
 407	2.0350e-001	18.211365	-39.179128
 408	2.0400e-001	21.141052	-38.803461
 409	2.0450e-001	24.253845	-38.583916
 410	2.0500e-001	26.939392	-38.096037
 411	2.0550e-001	29.930115	-37.622794
 412	2.0600e-001	32.997131	-37.047097
 413	2.0650e-001	35.865784	-36.437248
 414	2.0700e-001	38.993835	-35.602975
 415	2.0750e-001	41.038513	-34.554035
 416	2.0800e-001	44.395447	-33.305064
 417	2.0850e-001	47.584534	-31.621881
 418	2.0900e-001	50.987244	-29.909426
 419	2.0950e-001	53.382874	-27.621273
 420	2.1000e-001	55.778503	-25.035514
 421	2.1050e-001	58.708191	-22.122876
 422	2.1100e-001	61.889648	-18.985814
 423	2.1150e-001	64.620972	-15.507236
 424	2.1200e-001	67.802429	-11.784719
 425	2.1250e-001	70.465088	-7.901201
 426	2.1300e-001	73.875427	-3.890836
 427	2.1350e-001	76.805115	0.304924
 428	2.1400e-001	79.643250	4.671442
 429	2.1450e-001	82.504272	8.901353
 430	2.1500e-001	85.670471	13.136144
 431	2.1550e-001	88.775635	17.278237
 432	2.1600e-001	91.629028	21.273966
 433	2.1650e-001	95.237732	24.869635
 434	2.1700e-001	98.083496	28.255516
 435	2.1750e-001	101.020813	31.055942
 436	2.1800e-001	104.125977	33.324579
 437	2.1850e-001	107.482910	35.134611
 438	2.1900e-001	110.466003	36.642157
 439	2.1950e-001	113.632202	37.822824
 440	2.2000e-001	117.034912	38.598552
 441	2.2050e-001	119.934082	39.418189
 442	2.2100e-001	122.840881	40.008522
 443	2.2150e-001	125.724792	40.676917
 444	2.2200e-001	128.753662	41.140402
 445	2.2250e-001	131.858826	41.706342
 446	2.2300e-001	135.063171	41.955160
 447	2.2350e-001	137.641907	42.516221
 448	2.2400e-001	141.029358	43.008979
 449	2.2450e-001	144.317627	43.287070
 450	2.2500e-001	147.071838	43.648100
 451	2.2550e-001	150.100708	43.926191
 452	2.2600e-001	153.373718	44.311616
 453	2.2650e-001	155.479431	44.570192
 454	2.2700e-001	158.935547	44.799495
 455	2.2750e-001	162.162781	45.116616
 456	2.2800e-001	164.833069	45.297131
 457	2.2850e-001	168.159485	45.575223
 458	2.2900e-001	170.974731	45.843556
 459	2.2950e-001	173.980713	46.014314
 460	2.3000e-001	177.360535	46.131405
 461	2.3050e-001	179.962158	46.370465
 462	2.3100e-001	182.975769	46.570496
 463	2.3150e-001	186.408997	46.726617
 464	2.3200e-001	189.323425	46.877860
 465	2.3250e-001	191.963196	47.077890
 466	2.3300e-001	195.053101	47.273042
 467	2.3350e-001	197.906494	47.404769
 468	2.3400e-001	200.553894	47.599921
 469	2.3450e-001	203.605652	47.712133
 470	2.3500e-001	206.657410	47.746284
 471	2.3550e-001	210.464478	48.014618
 472	2.3600e-001	213.157654	48.131709
 473	2.3650e-001	215.950012	48.400042
 474	2.3700e-001	219.062805	48.448830
 475	2.3750e-001	222.129822	48.590315
 476	2.3800e-001	225.013733	48.629345
 477	2.3850e-001	228.050232	48.829376
 478	2.3900e-001	231.430054	48.931830
 479	2.3950e-001	234.222412	49.005012
 480	2.4000e-001	237.022400	49.268467
 481	2.4050e-001	240.318298	49.366043
 482	2.4100e-001	243.339539	49.566073
 483	2.4150e-001	246.093750	49.629498
 484	2.4200e-001	249.076843	49.805134
 485	2.4250e-001	252.082825	49.951498
 486	2.4300e-001	254.867554	49.956377
 487	2.4350e-001	257.896423	50.136892
 488	2.4400e-001	261.001587	50.175922
 489	2.4450e-001	264.396667	50.458892
 490	2.4500e-001	267.326355	50.575983
 491	2.4550e-001	269.981384	50.639407
 492	2.4600e-001	273.071289	50.863832
 493	2.4650e-001	275.909424	50.946771
 494	2.4700e-001	279.022217	51.049226
 495	2.4750e-001	282.012939	51.176074
 496	2.4800e-001	284.950256	51.312680
 497	2.4850e-001	288.375854	51.483438
 498	2.4900e-001	291.160583	51.498074
 499	2.4950e-001	294.067383	51.668832
 500	2.5000e-001	297.050476	51.781044
 501	2.5050e-001	300.483704	51.883499
 502	2.5100e-001	296.760559	51.927408
 503	2.5150e-001	293.983459	51.844468
 504	2.5200e-001	291.091919	51.844468
 505	2.5250e-001	286.796570	51.717620
 506	2.5300e-001	285.171509	51.756650
 507	2.5350e-001	282.554626	51.546862
 508	2.5400e-001	278.877258	51.527347
 509	2.5450e-001	276.733398	51.742014
 510	2.5500e-001	273.185730	51.415135
 511	2.5550e-001	270.080566	51.332195
 512	2.5600e-001	266.784668	51.234620
 513	2.5650e-001	264.312744	51.180953
 514	2.5700e-001	261.039734	51.083377
 515	2.5750e-001	257.904053	51.058983
 516	2.5800e-001	254.829407	50.966286
 517	2.5850e-001	252.220154	50.790650
 518	2.5900e-001	248.695374	50.766256
 519	2.5950e-001	246.025085	50.668680
 520	2.6000e-001	243.049622	50.580862
 521	2.6050e-001	240.028381	50.546710
 522	2.6100e-001	236.763000	50.317407
 523	2.6150e-001	234.016418	50.307649
 524	2.6200e-001	230.987549	50.156407
 525	2.6250e-001	227.928162	50.141771
 526	2.6300e-001	225.036621	50.073467
 527	2.6350e-001	221.817017	49.995407
 528	2.6400e-001	219.238281	49.819770
 529	2.6450e-001	215.965271	49.800255
 530	2.6500e-001	212.760925	49.639255
 531	2.6550e-001	209.732056	49.580710
 532	2.6600e-001	207.588196	49.483134
 533	2.6650e-001	204.170227	49.283103
 534	2.6700e-001	200.782776	49.205043
 535	2.6750e-001	198.043823	49.063558
 536	2.6800e-001	194.877625	48.936709
 537	2.6850e-001	192.077637	48.970861
 538	2.6900e-001	188.995361	48.761073
 539	2.6950e-001	186.027527	48.653739
 540	2.7000e-001	182.952881	48.551285
 541	2.7050e-001	179.092407	48.482982
 542	2.7100e-001	176.734924	48.302466
 543	2.7150e-001	173.973083	48.170739
 544	2.7200e-001	170.471191	48.112194
 545	2.7250e-001	167.755127	48.107315
 546	2.7300e-001	164.871216	47.917042
 547	2.7350e-001	161.979675	47.746284
 548	2.7400e-001	159.080505	47.560890
 549	2.7450e-001	156.112671	47.502345
 550	2.7500e-001	152.992249	47.390133
 551	2.7550e-001	150.024414	47.273042
 552	2.7600e-001	147.048950	47.151072
 553	2.7650e-001	144.096375	47.043739
 554	2.7700e-001	140.937805	46.858344
 555	2.7750e-001	137.763977	46.682708
 556	2.7800e-001	134.956360	46.565617
 557	2.7850e-001	132.095337	46.424132
 558	2.7900e-001	128.990173	46.258253
 559	2.7950e-001	125.999451	46.214344
 560	2.8000e-001	123.207092	46.004556
 561	2.8050e-001	119.941711	45.848435
 562	2.8100e-001	117.134094	45.692314
 563	2.8150e-001	114.143372	45.584980
 564	2.8200e-001	111.412048	45.521556
 565	2.8250e-001	108.123779	45.243465
 566	2.8300e-001	104.751587	45.004404
 567	2.8350e-001	102.249146	44.858040
 568	2.8400e-001	98.838806	44.638495
 569	2.8450e-001	95.985413	44.570192
 570	2.8500e-001	92.956543	44.350646
 571	2.8550e-001	89.569092	44.184767
 572	2.8600e-001	86.692810	44.067676
 573	2.8650e-001	84.136963	43.799343
 574	2.8700e-001	80.726624	43.570040
 575	2.8750e-001	77.911377	43.311464
 576	2.8800e-001	75.042725	43.087039
 577	2.8850e-001	71.456909	42.735766
 578	2.8900e-001	69.099426	42.730888
 579	2.8950e-001	65.864563	42.506463
 580	2.9000e-001	62.866211	42.194221
 581	2.9050e-001	60.173035	41.818554
 582	2.9100e-001	56.938171	41.657554
 583	2.9150e-001	54.016113	41.277008
 584	2.9200e-001	51.254272	40.959887
 585	2.9250e-001	48.156738	40.657402
 586	2.9300e-001	45.097351	40.320765
 587	2.9350e-001	42.068481	40.003644
 588	2.9400e-001	39.108276	39.545037
 589	2.9450e-001	36.170959	39.003492
 590	2.9500e-001	33.020020	38.510734
 591	2.9550e-001	30.242920	37.803309
 592	2.9600e-001	27.381897	37.173945
 593	2.9650e-001	24.833679	36.212823
 594	2.9700e-001	21.301270	35.505399
 595	2.9750e-001	18.402100	34.622338
 596	2.9800e-001	15.411377	33.597792
 597	2.9850e-001	12.535095	32.485427
 598	2.9900e-001	9.300232	31.182790
 599	2.9950e-001	6.385803	29.709395
 600	3.0000e-001	3.608704	28.148182
 601	3.0050e-001	1.724243	26.562576
 602	3.0100e-001	-1.312256	24.474453
 603	3.0150e-001	-4.920959	22.400967
 604	3.0200e-001	-8.163452	20.195754
 605	3.0250e-001	-10.986328	17.668540
 606	3.0300e-001	-14.038086	14.994963
 607	3.0350e-001	-16.784668	12.004264
 608	3.0400e-001	-19.752502	8.911111
 609	3.0450e-001	-22.560120	5.686230
 610	3.0500e-001	-25.604248	2.363774
 611	3.0550e-001	-28.488159	-1.197743
 612	3.0600e-001	-31.280518	-4.934897
 613	3.0650e-001	-34.049988	-8.662293
 614	3.0700e-001	-37.506104	-12.560446
 615	3.0750e-001	-40.710449	-16.414691
 616	3.0800e-001	-43.685913	-20.215269
 617	3.0850e-001	-46.722412	-24.020726
 618	3.0900e-001	-49.743652	-27.679819
 619	3.0950e-001	-52.803040	-30.958366
 620	3.1000e-001	-55.824280	-34.085671
 621	3.1050e-001	-59.059143	-36.666551
 622	3.1100e-001	-62.179565	-38.876643
 623	3.1150e-001	-65.551758	-40.559826
 624	3.1200e-001	-68.634033	-41.745372
 625	3.1250e-001	-71.945190	-42.321069
 626	3.1300e-001	-74.729919	-42.657706
 627	3.1350e-001	-77.880859	-43.038251
 628	3.1400e-001	-80.749512	-43.179736
 629	3.1450e-001	-83.847046	-43.409040
 630	3.1500e-001	-86.990356	-43.594434
 631	3.1550e-001	-89.828491	-43.784706
 632	3.1600e-001	-93.933105	-43.862767
 633	3.1650e-001	-96.099854	-44.140858
 634	3.1700e-001	-98.670959	-44.418949
 635	3.1750e-001	-101.921082	-44.614101
 636	3.1800e-001	-104.766846	-44.794616
 637	3.1850e-001	-107.612610	-44.867798
 638	3.1900e-001	-110.984802	-44.984889
 639	3.1950e-001	-114.089966	-45.097101
 640	3.2000e-001	-117.126465	-45.316647
 641	3.2050e-001	-119.941711	-45.423980
 642	3.2100e-001	-123.008728	-45.545950
 643	3.2150e-001	-126.098633	-45.828920
 644	3.2200e-001	-128.852844	-45.897223
 645	3.2250e-001	-131.858826	-46.097253
 646	3.2300e-001	-134.735107	-46.263132
 647	3.2350e-001	-137.779236	-46.224102
 648	3.2400e-001	-140.968323	-46.487556
 649	3.2450e-001	-143.119812	-46.511950
 650	3.2500e-001	-146.850586	-46.692466
 651	3.2550e-001	-149.864197	-46.829072
 652	3.2600e-001	-152.931213	-46.994951
 653	3.2650e-001	-155.952454	-47.131557
 654	3.2700e-001	-158.920288	-47.180345
 655	3.2750e-001	-161.384583	-47.165708
 656	3.2800e-001	-165.031433	-47.370617
 657	3.2850e-001	-167.999268	-47.531618
 658	3.2900e-001	-170.860291	-47.663345
 659	3.2950e-001	-174.110413	-47.736527
 660	3.3000e-001	-176.750183	-47.921921
 661	3.3050e-001	-180.068970	-48.019497
 662	3.3100e-001	-182.922363	-48.117072
 663	3.3150e-001	-185.356140	-48.414679
 664	3.3200e-001	-189.430237	-48.404921
 665	3.3250e-001	-192.131042	-48.351254
 666	3.3300e-001	-195.251465	-48.629345
 667	3.3350e-001	-197.959900	-48.702527
 668	3.3400e-001	-200.866699	-48.770830
 669	3.3450e-001	-204.093933	-48.878164
 670	3.3500e-001	-206.985474	-48.980618
 671	3.3550e-001	-210.037231	-49.122103
 672	3.3600e-001	-212.913513	-49.161134
 673	3.3650e-001	-216.079712	-49.297740
 674	3.3700e-001	-219.345093	-49.302619
 675	3.3750e-001	-221.771240	-49.488013
 676	3.3800e-001	-225.013733	-49.570952
 677	3.3850e-001	-228.050232	-49.702679
 678	3.3900e-001	-231.079102	-49.692922
 679	3.3950e-001	-233.932495	-49.829528
 680	3.4000e-001	-236.999512	-49.985649
 681	3.4050e-001	-239.982605	-50.078346
 682	3.4100e-001	-242.790222	-50.234468
 683	3.4150e-001	-245.910645	-50.141771
 684	3.4200e-001	-248.771667	-50.400346
 685	3.4250e-001	-250.892639	-50.419862
 686	3.4300e-001	-255.065918	-50.497922
 687	3.4350e-001	-257.873535	-50.663801
 688	3.4400e-001	-260.879517	-50.727225
 689	3.4450e-001	-263.977051	-50.746741
 690	3.4500e-001	-266.990662	-50.937013
 691	3.4550e-001	-269.813538	-51.029710
 692	3.4600e-001	-273.483276	-51.078498
 693	3.4650e-001	-275.932312	-51.156559
 694	3.4700e-001	-278.579712	-51.351711
 695	3.4750e-001	-281.654358	-51.439529
 696	3.4800e-001	-285.057068	-51.449286
 697	3.4850e-001	-288.146973	-51.541983
 698	3.4900e-001	-290.939331	-51.576135
 699	3.4950e-001	-293.945313	-51.639559
 700	3.5000e-001	-296.951294	-51.824953
 701	3.5050e-001	-300.018311	-51.927408
 702	3.5100e-001	-296.928406	-51.771287
 703	3.5150e-001	-294.036865	-51.746893
 704	3.5200e-001	-290.908813	-51.600529
 705	3.5250e-001	-287.994385	-51.610287
 706	3.5300e-001	-285.148621	-51.488317
 707	3.5350e-001	-281.951904	-51.468802
 708	3.5400e-001	-278.778076	-51.454165
 709	3.5450e-001	-275.833130	-51.337074
 710	3.5500e-001	-272.964478	-51.171195
 711	3.5550e-001	-270.195007	-51.205347
 712	3.5600e-001	-267.333984	-51.127286
 713	3.5650e-001	-263.946533	-51.102892
 714	3.5700e-001	-260.780334	-50.937013
 715	3.5750e-001	-257.949829	-50.854074
 716	3.5800e-001	-254.325867	-50.644286
 717	3.5850e-001	-251.976013	-50.693074
 718	3.5900e-001	-248.855591	-50.644286
 719	3.5950e-001	-245.948792	-50.595498
 720	3.6000e-001	-242.889404	-50.580862
 721	3.6050e-001	-239.349365	-50.488165
 722	3.6100e-001	-236.915588	-50.356437
 723	3.6150e-001	-234.184265	-50.263740
 724	3.6200e-001	-231.300354	-50.205195
 725	3.6250e-001	-227.531433	-50.039316
 726	3.6300e-001	-224.594116	-50.014922
 727	3.6350e-001	-221.755981	-49.961255
 728	3.6400e-001	-218.910217	-49.907589
 729	3.6450e-001	-215.454102	-49.873437
 730	3.6500e-001	-212.554932	-49.741710
 731	3.6550e-001	-209.808350	-49.522164
 732	3.6600e-001	-206.924438	-49.502649
 733	3.6650e-001	-203.842163	-49.439225
 734	3.6700e-001	-200.874329	-49.331891
 735	3.6750e-001	-197.746277	-49.195285
 736	3.6800e-001	-194.923401	-49.146497
 737	3.6850e-001	-191.802979	-49.092831
 738	3.6900e-001	-188.743591	-49.039164
 739	3.6950e-001	-185.882568	-48.941588
 740	3.7000e-001	-183.197021	-48.814740
 741	3.7050e-001	-179.878235	-48.795224
 742	3.7100e-001	-176.811218	-48.575679
 743	3.7150e-001	-173.812866	-48.561042
 744	3.7200e-001	-170.898438	-48.507376
 745	3.7250e-001	-167.831421	-48.312224
 746	3.7300e-001	-164.810181	-48.263436
 747	3.7350e-001	-162.559509	-48.029254
 748	3.7400e-001	-158.302307	-48.029254
 749	3.7450e-001	-155.654907	-47.965830
 750	3.7500e-001	-153.022766	-47.887769
 751	3.7550e-001	-149.940491	-47.809709
 752	3.7600e-001	-146.842957	-47.599921
 753	3.7650e-001	-143.997192	-47.677981
 754	3.7700e-001	-140.731812	-47.458436
 755	3.7750e-001	-139.289856	-47.521860
 756	3.7800e-001	-135.375977	-47.190102
 757	3.7850e-001	-131.317139	-47.126678
 758	3.7900e-001	-128.692627	-47.043739
 759	3.7950e-001	-126.228333	-46.912011
 760	3.8000e-001	-122.879028	-46.770526
 761	3.8050e-001	-119.720459	-46.580253
 762	3.8100e-001	-117.034912	-46.609526
 763	3.8150e-001	-113.868713	-46.531465
 764	3.8200e-001	-110.862732	-46.429011
 765	3.8250e-001	-107.917786	-46.258253
 766	3.8300e-001	-105.300903	-46.165556
 767	3.8350e-001	-102.081299	-45.960647
 768	3.8400e-001	-98.846436	-45.882586
 769	3.8450e-001	-95.825195	-45.745980
 770	3.8500e-001	-92.773438	-45.521556
 771	3.8550e-001	-89.836121	-45.536192
 772	3.8600e-001	-86.814880	-45.384950
 773	3.8650e-001	-83.969116	-45.253222
 774	3.8700e-001	-80.635071	-45.009283
 775	3.8750e-001	-77.835083	-44.926343
 776	3.8800e-001	-74.798584	-44.936101
 777	3.8850e-001	-71.846008	-44.623858
 778	3.8900e-001	-69.023132	-44.418949
 779	3.8950e-001	-65.650940	-44.404313
 780	3.9000e-001	-62.957764	-44.214040
 781	3.9050e-001	-59.715271	-44.184767
 782	3.9100e-001	-57.006836	-43.984737
 783	3.9150e-001	-54.061890	-43.818858
 784	3.9200e-001	-51.635742	-43.677373
 785	3.9250e-001	-48.118591	-43.345615
 786	3.9300e-001	-44.181824	-43.379767
 787	3.9350e-001	-42.083740	-43.233403
 788	3.9400e-001	-38.917542	-42.960191
 789	3.9450e-001	-35.598755	-42.804069
 790	3.9500e-001	-32.783508	-42.667463
 791	3.9550e-001	-29.785156	-42.491827
 792	3.9600e-001	-26.855469	-42.282039
 793	3.9650e-001	-23.307800	-41.979554
 794	3.9700e-001	-20.965576	-41.872220
 795	3.9750e-001	-17.700195	-41.628281
 796	3.9800e-001	-14.732361	-41.491675
 797	3.9850e-001	-11.856079	-41.164796
 798	3.9900e-001	-8.850098	-40.998917
 799	3.9950e-001	-5.935669	-40.725705
 800	4.0000e-001	-2.731323	-40.491523
 801	4.0050e-001	-0.190735	-40.276856

Center data before PMax,±Pr and ±Vc Calc.

PMax (µC/cm2):	5.19e+001
Pr (µC/cm2):	2.54e+001
-Pr (µC/cm2):	-4.03e+001
Ec:	7.66e-003
-Ec:	-2.75e-003
C (Max-Eff) (nF):	1.36e+000
K (Eff):	1.96e+003
Vert. (±Pr) Shift (µC/cm2):	-7.45e+000
Horiz. Shift (±Ec):	2.45e-003
Offset (µC/cm2):	4.09e+001

A (Loop Area - µC/cm2·Volts):	8.79e+003



Hysteresis Version: 5.16.2 - Radiant Technologies, Inc., 1999 - 3/20/18

