»»»»»»»»»»»»»»»»»»»»»»»»»»»»»»»»»»»» Hysteresis ««««««««««««««««««««««««««««««««««««
»»»  Executed Version:	5.16.2
»»»  Vision Version:	5.16.10 (R)
»»»  Vision Compiled:	4/26/18
»»»  Driver Version:	5.16.6
»»»  Windows Version:	Windows 8
»»»  Processor Information:	x86 (AMD or Intel) - 8 Processors
»»»  Tester Name:	PPM21016-863
»»»  Tester S/N:	PPM21016-863
»»»  Internal Amp Type:	 RTI ML200V    
»»»  Internal Amp S/N:	 iAB2-0000     
»»»  Execution Count:	1
»»»»»»»»»»»»»»»»»»»»»»»»»»»»»»»»»»»»»»»»»»««««««««««««««««««««««««««««««««««««««««««

Stored:	8/2/2018 - 13:23:49
Configured:	08/02/18 01:13:44 PM
Executed:	08/02/18 01:22:41 PM

»»»»»»»»»»»»»»»»»»»»»»»»»»»»»»»»»»» Sample Info ««««««««««««««««««««««««««««««««««««
Sample Name:	Internal Reference Cap.
Lot Name:	N/A
Wafer Name:	N/A
Die Row/Column:	0/0
Capacitor Number:	0
Sample Area (cm2):	6.20e-005
Sample Thickness (µm):	1.00e-001

Mux Loop Adjustment:	Disabled

Amplifier:	Internal

»»»»»»»»»»»»»»»»»»»»»»»»»»»»»»»»»»» Tester Info «««««««««««««««««««««««««««««««««««
Tester Name:	PPM21016-863
Tester Serial Number:	PPM21016-863
Return Signal Amp. Level:	2.0 [Index: 0]

»»»»»»»»»»»»»»»»»»»»»»»»»»»»»»»» Hysteresis Info ««««««««««««««««««««««««««««««««««
Task Name:	Hyst-1
Volts:	50.00
Field:	5000.00 (kV/cm)
Hysteresis Period (ms):	4.00e-001
Preset:	Enabled
Preset Delay (ms):	1.00e+003
Profile:	Double Bipolar

»»»»»»»»»»»»»»»»»»»»»»»»»»»»»»»»»»»»»» Data «««««««««««««««««««««««««««««««««««««««
Points:	801

Valid Data

Point	Time (ms)	Field (kV/cm)	Measured Polarization
   1	5.0000e-004	505.966187	-5.901329
   2	1.0000e-003	546.661377	-5.863962
   3	1.5000e-003	597.290039	-5.832030
   4	2.0000e-003	645.675659	-5.782433
   5	2.5000e-003	698.066711	-5.729440
   6	3.0000e-003	746.452332	-5.683919
   7	3.5000e-003	796.920776	-5.641117
   8	4.0000e-003	844.505310	-5.606467
   9	4.5000e-003	895.935059	-5.532411
  10	5.0000e-003	943.679810	-5.483494
  11	5.5000e-003	997.352600	-5.436615
  12	6.0000e-003	1044.456482	-5.382942
  13	6.5000e-003	1095.405579	-5.321116
  14	7.0000e-003	1143.791199	-5.257931
  15	7.5000e-003	1196.983337	-5.194746
  16	8.0000e-003	1243.125916	-5.123408
  17	8.5000e-003	1291.992188	-5.037124
  18	9.0000e-003	1341.018677	-4.961710
  19	9.5000e-003	1392.929077	-4.880181
  20	1.0000e-002	1442.756653	-4.760605
  21	1.0500e-002	1491.943359	-4.667526
  22	1.1000e-002	1543.373108	-4.574448
  23	1.1500e-002	1591.117859	-4.460987
  24	1.2000e-002	1643.348694	-4.354320
  25	1.2500e-002	1697.021484	-4.230668
  26	1.3000e-002	1743.804932	-4.107695
  27	1.3500e-002	1794.433594	-3.976569
  28	1.4000e-002	1845.062256	-3.839329
  29	1.4500e-002	1895.050049	-3.687821
  30	1.5000e-002	1941.993713	-3.524764
  31	1.5500e-002	1992.782593	-3.375974
  32	1.6000e-002	2040.687561	-3.216313
  33	1.6500e-002	2092.918396	-3.042385
  34	1.7000e-002	2138.740540	-2.841280
  35	1.7500e-002	2190.490723	-2.609602
  36	1.8000e-002	2239.517212	-2.316778
  37	1.8500e-002	2286.300659	-1.962807
  38	1.9000e-002	2336.769104	-1.485863
  39	1.9500e-002	2386.917114	-0.922635
  40	2.0000e-002	2435.943604	-0.257495
  41	2.0500e-002	2490.577698	0.489173
  42	2.1000e-002	2537.681580	1.226330
  43	2.1500e-002	2589.111328	1.872446
  44	2.2000e-002	2637.977600	2.422765
  45	2.2500e-002	2688.285828	2.867098
  46	2.3000e-002	2738.273621	3.306674
  47	2.3500e-002	2787.780762	3.781580
  48	2.4000e-002	2838.249207	4.267356
  49	2.4500e-002	2887.115479	4.672962
  50	2.5000e-002	2937.744141	4.997039
  51	2.5500e-002	2988.853455	5.243663
  52	2.6000e-002	3036.437988	5.446127
  53	2.6500e-002	3086.105347	5.626170
  54	2.7000e-002	3139.617920	5.768845
  55	2.7500e-002	3187.202454	5.897932
  56	2.8000e-002	3238.952637	6.018867
  57	2.8500e-002	3283.813477	6.139801
  58	2.9000e-002	3336.845398	6.228124
  59	2.9500e-002	3385.391235	6.340906
  60	3.0000e-002	3433.776855	6.441458
  61	3.0500e-002	3485.847473	6.533857
  62	3.1000e-002	3534.072876	6.639166
  63	3.1500e-002	3585.342407	6.729527
  64	3.2000e-002	3631.324768	6.822605
  65	3.2500e-002	3688.041687	6.912287
  66	3.3000e-002	3733.543396	6.999931
  67	3.3500e-002	3783.531189	7.078742
  68	3.4000e-002	3831.756592	7.169103
  69	3.4500e-002	3884.948730	7.251991
  70	3.5000e-002	3935.096741	7.324687
  71	3.5500e-002	3990.852356	7.419804
  72	3.6000e-002	4035.552979	7.493180
  73	3.6500e-002	4086.021423	7.584900
  74	3.7000e-002	4133.766174	7.659635
  75	3.7500e-002	4185.997009	7.731652
  76	3.8000e-002	4233.421326	7.798913
  77	3.8500e-002	4283.409119	7.879763
  78	3.9000e-002	4332.435608	7.964689
  79	3.9500e-002	4384.666443	8.040103
  80	4.0000e-002	4429.687500	8.093097
  81	4.0500e-002	4484.481812	8.148129
  82	4.1000e-002	4529.182434	8.233734
  83	4.1500e-002	4581.573486	8.300995
  84	4.2000e-002	4630.439758	8.356027
  85	4.2500e-002	4681.869507	8.414456
  86	4.3000e-002	4730.094910	8.488511
  87	4.3500e-002	4782.005310	8.546940
  88	4.4000e-002	4829.750061	8.587705
  89	4.4500e-002	4879.417419	8.661760
  90	4.5000e-002	4928.443909	8.699807
  91	4.5500e-002	4982.276917	8.767748
  92	4.6000e-002	5030.342102	8.803077
  93	4.6500e-002	5081.611633	8.849277
  94	4.7000e-002	5133.522034	8.884606
  95	4.7500e-002	5186.553955	8.930126
  96	4.8000e-002	5232.856750	8.993311
  97	4.8500e-002	5281.883240	9.045625
  98	4.9000e-002	5327.705383	9.078916
  99	4.9500e-002	5378.173828	9.132589
 100	5.0000e-002	5426.719666	9.182186
 101	5.0500e-002	5477.348328	9.220912
 102	5.1000e-002	5442.260742	9.208683
 103	5.1500e-002	5392.112732	9.192377
 104	5.2000e-002	5341.644287	9.162483
 105	5.2500e-002	5295.181274	9.135986
 106	5.3000e-002	5244.071960	9.116284
 107	5.3500e-002	5194.244385	9.076878
 108	5.4000e-002	5150.344849	9.044266
 109	5.4500e-002	5099.876404	9.022525
 110	5.5000e-002	5046.844482	8.985158
 111	5.5500e-002	4997.978210	8.945752
 112	5.6000e-002	4948.631287	8.926729
 113	5.6500e-002	4898.002625	8.893438
 114	5.7000e-002	4849.617004	8.851315
 115	5.7500e-002	4798.347473	8.826856
 116	5.8000e-002	4750.282288	8.793565
 117	5.8500e-002	4701.416016	8.752121
 118	5.9000e-002	4648.223877	8.724266
 119	5.9500e-002	4599.838257	8.693692
 120	6.0000e-002	4547.607422	8.661760
 121	6.0500e-002	4498.100281	8.646134
 122	6.1000e-002	4449.554443	8.608767
 123	6.1500e-002	4398.605347	8.581590
 124	6.2000e-002	4348.136902	8.551696
 125	6.2500e-002	4299.751282	8.517726
 126	6.3000e-002	4252.487183	8.470847
 127	6.3500e-002	4201.538086	8.443671
 128	6.4000e-002	4152.832031	8.396112
 129	6.4500e-002	4105.247498	8.377089
 130	6.5000e-002	4052.856445	8.333607
 131	6.5500e-002	4002.388000	8.298957
 132	6.6000e-002	3952.239990	8.266345
 133	6.6500e-002	3904.815674	8.233054
 134	6.7000e-002	3853.385925	8.192290
 135	6.7500e-002	3803.237915	8.176664
 136	6.8000e-002	3752.288818	8.147449
 137	6.8500e-002	3705.184937	8.108044
 138	6.9000e-002	3651.992798	8.066600
 139	6.9500e-002	3603.607178	8.038744
 140	7.0000e-002	3552.177429	8.014965
 141	7.0500e-002	3502.029419	7.972162
 142	7.1000e-002	3449.638367	7.938871
 143	7.1500e-002	3404.617310	7.901504
 144	7.2000e-002	3352.066040	7.887916
 145	7.2500e-002	3299.674988	7.818616
 146	7.3000e-002	3254.814148	7.798913
 147	7.3500e-002	3205.947876	7.769699
 148	7.4000e-002	3156.120300	7.724858
 149	7.4500e-002	3106.933594	7.687491
 150	7.5000e-002	3056.465149	7.648085
 151	7.5500e-002	3007.118225	7.616832
 152	7.6000e-002	2956.329346	7.581503
 153	7.6500e-002	2907.302856	7.535303
 154	7.7000e-002	2855.712891	7.502012
 155	7.7500e-002	2807.968140	7.463286
 156	7.8000e-002	2756.858826	7.432034
 157	7.8500e-002	2705.108643	7.398063
 158	7.9000e-002	2653.198242	7.368169
 159	7.9500e-002	2606.254578	7.325367
 160	8.0000e-002	2555.946350	7.294114
 161	8.0500e-002	2507.400513	7.254029
 162	8.1000e-002	2454.528809	7.211226
 163	8.1500e-002	2406.784058	7.181332
 164	8.2000e-002	2360.000610	7.141247
 165	8.2500e-002	2308.891296	7.110674
 166	8.3000e-002	2256.660461	7.083498
 167	8.3500e-002	2208.114624	7.038657
 168	8.4000e-002	2159.248352	7.001969
 169	8.4500e-002	2112.945557	6.970716
 170	8.5000e-002	2060.234070	6.931990
 171	8.5500e-002	2009.765625	6.886470
 172	8.6000e-002	1958.976746	6.844346
 173	8.6500e-002	1910.430908	6.800185
 174	8.7000e-002	1856.758118	6.765535
 175	8.7500e-002	1809.013367	6.729527
 176	8.8000e-002	1756.942749	6.671098
 177	8.8500e-002	1707.595825	6.646639
 178	8.9000e-002	1658.569336	6.601798
 179	8.9500e-002	1607.780457	6.560354
 180	9.0000e-002	1559.074402	6.517552
 181	9.0500e-002	1509.086609	6.478146
 182	9.1000e-002	1457.496643	6.435343
 183	9.1500e-002	1408.630371	6.432626
 184	9.2000e-002	1360.565186	6.330715
 185	9.2500e-002	1314.903259	6.304897
 186	9.3000e-002	1260.910034	6.262774
 187	9.3500e-002	1209.960938	6.227445
 188	9.4000e-002	1164.939880	6.166978
 189	9.4500e-002	1112.709045	6.123496
 190	9.5000e-002	1062.721252	6.088166
 191	9.5500e-002	1011.451721	6.024982
 192	9.6000e-002	961.463928	5.986935
 193	9.6500e-002	912.597656	5.927147
 194	9.7000e-002	862.770081	5.874833
 195	9.7500e-002	809.898376	5.834068
 196	9.8000e-002	760.070801	5.793983
 197	9.8500e-002	712.165833	5.736234
 198	9.9000e-002	660.896301	5.686637
 199	9.9500e-002	612.510681	5.663537
 200	1.0000e-001	563.964844	5.600352
 201	1.0050e-001	517.021179	5.546679
 202	1.0100e-001	465.431213	5.495723
 203	1.0150e-001	419.128418	5.426424
 204	1.0200e-001	366.897583	5.380904
 205	1.0250e-001	318.031311	5.317719
 206	1.0300e-001	267.402649	5.262007
 207	1.0350e-001	218.536377	5.187273
 208	1.0400e-001	163.742065	5.147188
 209	1.0450e-001	118.721008	5.069735
 210	1.0500e-001	63.446045	5.018100
 211	1.0550e-001	13.618469	4.956954
 212	1.0600e-001	-35.568237	4.889013
 213	1.0650e-001	-85.235596	4.827866
 214	1.0700e-001	-136.825562	4.744299
 215	1.0750e-001	-183.769226	4.672962
 216	1.0800e-001	-234.718323	4.598906
 217	1.0850e-001	-279.579163	4.501751
 218	1.0900e-001	-332.771301	4.429054
 219	1.0950e-001	-382.438660	4.328502
 220	1.1000e-001	-435.150146	4.232706
 221	1.1050e-001	-479.209900	4.116527
 222	1.1100e-001	-530.639648	4.019372
 223	1.1150e-001	-579.345703	3.887567
 224	1.1200e-001	-628.372192	3.745571
 225	1.1250e-001	-676.437378	3.583193
 226	1.1300e-001	-729.949951	3.401791
 227	1.1350e-001	-775.451660	3.189137
 228	1.1400e-001	-831.687927	2.941153
 229	1.1450e-001	-880.714417	2.640176
 230	1.1500e-001	-933.105469	2.238646
 231	1.1550e-001	-981.651306	1.726373
 232	1.1600e-001	-1034.202576	0.961361
 233	1.1650e-001	-1077.301025	0.006115
 234	1.1700e-001	-1129.371643	-1.106075
 235	1.1750e-001	-1179.840088	-2.232532
 236	1.1800e-001	-1229.347229	-3.325697
 237	1.1850e-001	-1277.572632	-4.275508
 238	1.1900e-001	-1332.366943	-5.090797
 239	1.1950e-001	-1379.310608	-5.749822
 240	1.2000e-001	-1428.016663	-6.206383
 241	1.2050e-001	-1475.921631	-6.514834
 242	1.2100e-001	-1527.351379	-6.720015
 243	1.2150e-001	-1570.289612	-6.888508
 244	1.2200e-001	-1628.448486	-7.040016
 245	1.2250e-001	-1674.591064	-7.170462
 246	1.2300e-001	-1728.263855	-7.270335
 247	1.2350e-001	-1776.969910	-7.343711
 248	1.2400e-001	-1828.559875	-7.418445
 249	1.2450e-001	-1877.586365	-7.470080
 250	1.2500e-001	-1929.496765	-7.537342
 251	1.2550e-001	-1978.843689	-7.578106
 252	1.2600e-001	-2029.632568	-7.630420
 253	1.2650e-001	-2078.338623	-7.672544
 254	1.2700e-001	-2126.083374	-7.721461
 255	1.2750e-001	-2177.673340	-7.766981
 256	1.2800e-001	-2227.821350	-7.800272
 257	1.2850e-001	-2266.593933	-7.849869
 258	1.2900e-001	-2324.592590	-7.900824
 259	1.2950e-001	-2374.259949	-7.955856
 260	1.3000e-001	-2424.407959	-7.989827
 261	1.3050e-001	-2472.793579	-8.027194
 262	1.3100e-001	-2522.460938	-8.083585
 263	1.3150e-001	-2573.410034	-8.125029
 264	1.3200e-001	-2626.922607	-8.167831
 265	1.3250e-001	-2672.904968	-8.193649
 266	1.3300e-001	-2727.539063	-8.244604
 267	1.3350e-001	-2775.444031	-8.282651
 268	1.3400e-001	-2825.752258	-8.326133
 269	1.3450e-001	-2873.657227	-8.362142
 270	1.3500e-001	-2923.805237	-8.405624
 271	1.3550e-001	-2972.511292	-8.440953
 272	1.3600e-001	-3022.819519	-8.505497
 273	1.3650e-001	-3072.807312	-8.531994
 274	1.3700e-001	-3124.397278	-8.593140
 275	1.3750e-001	-3169.898987	-8.625752
 276	1.3800e-001	-3225.494385	-8.659722
 277	1.3850e-001	-3270.835876	-8.709319
 278	1.3900e-001	-3321.304321	-8.745327
 279	1.3950e-001	-3370.651245	-8.777259
 280	1.4000e-001	-3421.279907	-8.830933
 281	1.4050e-001	-3466.781616	-8.881209
 282	1.4100e-001	-3522.537231	-8.908385
 283	1.4150e-001	-3572.044373	-8.931485
 284	1.4200e-001	-3622.512817	-8.989234
 285	1.4250e-001	-3671.859741	-9.027961
 286	1.4300e-001	-3724.891663	-9.048343
 287	1.4350e-001	-3771.514893	-9.098619
 288	1.4400e-001	-3821.022034	-9.139383
 289	1.4450e-001	-3871.971130	-9.191698
 290	1.4500e-001	-3919.715881	-9.241974
 291	1.4550e-001	-3971.786499	-9.258280
 292	1.4600e-001	-4018.890381	-9.311273
 293	1.4650e-001	-4068.878174	-9.354755
 294	1.4700e-001	-4114.700317	-9.408429
 295	1.4750e-001	-4167.572021	-9.439002
 296	1.4800e-001	-4219.161987	-9.487240
 297	1.4850e-001	-4264.663696	-9.511019
 298	1.4900e-001	-4318.817139	-9.559257
 299	1.4950e-001	-4368.003845	-9.610892
 300	1.5000e-001	-4418.151855	-9.625159
 301	1.5050e-001	-4468.139648	-9.672039
 302	1.5100e-001	-4433.853149	-9.660489
 303	1.5150e-001	-4385.787964	-9.617007
 304	1.5200e-001	-4335.479736	-9.591189
 305	1.5250e-001	-4282.447815	-9.562654
 306	1.5300e-001	-4236.785889	-9.521210
 307	1.5350e-001	-4186.637878	-9.498110
 308	1.5400e-001	-4136.489868	-9.468896
 309	1.5450e-001	-4085.380554	-9.431528
 310	1.5500e-001	-4036.834717	-9.398917
 311	1.5550e-001	-3983.001709	-9.366305
 312	1.5600e-001	-3933.975220	-9.328259
 313	1.5650e-001	-3883.827209	-9.297006
 314	1.5700e-001	-3838.325500	-9.267112
 315	1.5750e-001	-3785.774231	-9.243333
 316	1.5800e-001	-3738.670349	-9.196454
 317	1.5850e-001	-3686.279297	-9.171995
 318	1.5900e-001	-3641.258240	-9.135307
 319	1.5950e-001	-3588.706970	-9.097940
 320	1.6000e-001	-3540.641785	-9.055816
 321	1.6050e-001	-3490.653992	-9.031358
 322	1.6100e-001	-3440.986633	-8.992631
 323	1.6150e-001	-3388.755798	-8.947791
 324	1.6200e-001	-3340.049744	-8.913820
 325	1.6250e-001	-3288.940430	-8.883926
 326	1.6300e-001	-3238.311768	-8.851994
 327	1.6350e-001	-3188.003540	-8.815986
 328	1.6400e-001	-3140.419006	-8.789489
 329	1.6450e-001	-3085.784912	-8.754160
 330	1.6500e-001	-3039.962769	-8.701166
 331	1.6550e-001	-2997.825623	-8.684181
 332	1.6600e-001	-2932.937622	-8.616919
 333	1.6650e-001	-2889.518738	-8.586346
 334	1.6700e-001	-2841.293335	-8.551696
 335	1.6750e-001	-2793.708801	-8.527917
 336	1.6800e-001	-2743.721008	-8.483076
 337	1.6850e-001	-2691.650391	-8.457938
 338	1.6900e-001	-2644.546509	-8.421250
 339	1.6950e-001	-2593.116760	-8.389318
 340	1.7000e-001	-2542.808533	-8.333607
 341	1.7050e-001	-2493.621826	-8.299636
 342	1.7100e-001	-2444.595337	-8.256154
 343	1.7150e-001	-2391.723633	-8.226260
 344	1.7200e-001	-2341.415405	-8.198405
 345	1.7250e-001	-2291.587830	-8.154243
 346	1.7300e-001	-2241.920471	-8.108044
 347	1.7350e-001	-2189.849854	-8.085623
 348	1.7400e-001	-2143.867493	-8.041462
 349	1.7450e-001	-2093.238831	-8.008850
 350	1.7500e-001	-2041.168213	-7.968765
 351	1.7550e-001	-1995.025635	-7.936833
 352	1.7600e-001	-1945.678711	-7.898107
 353	1.7650e-001	-1896.972656	-7.841716
 354	1.7700e-001	-1849.227905	-7.800272
 355	1.7750e-001	-1797.157288	-7.762225
 356	1.7800e-001	-1746.688843	-7.709232
 357	1.7850e-001	-1694.618225	-7.682735
 358	1.7900e-001	-1645.431519	-7.628382
 359	1.7950e-001	-1593.841553	-7.595091
 360	1.8000e-001	-1545.135498	-7.552968
 361	1.8050e-001	-1491.783142	-7.522395
 362	1.8100e-001	-1444.999695	-7.474157
 363	1.8150e-001	-1395.973206	-7.429316
 364	1.8200e-001	-1345.825195	-7.372925
 365	1.8250e-001	-1294.876099	-7.348466
 366	1.8300e-001	-1247.291565	-7.298870
 367	1.8350e-001	-1195.220947	-7.254029
 368	1.8400e-001	-1150.680542	-7.226173
 369	1.8450e-001	-1096.206665	-7.158912
 370	1.8500e-001	-1049.423218	-7.124942
 371	1.8550e-001	-1001.358032	-7.102521
 372	1.8600e-001	-951.850891	-7.042054
 373	1.8650e-001	-901.222229	-6.997892
 374	1.8700e-001	-850.753784	-6.971396
 375	1.8750e-001	-797.080994	-6.914325
 376	1.8800e-001	-750.297546	-6.883752
 377	1.8850e-001	-695.823669	-6.823285
 378	1.8900e-001	-647.117615	-6.777765
 379	1.8950e-001	-596.969604	-6.731565
 380	1.9000e-001	-548.423767	-6.687403
 381	1.9050e-001	-496.994019	-6.653433
 382	1.9100e-001	-449.890137	-6.612669
 383	1.9150e-001	-399.421692	-6.584813
 384	1.9200e-001	-350.234985	-6.520949
 385	1.9250e-001	-301.528931	-6.468634
 386	1.9300e-001	-252.182007	-6.421755
 387	1.9350e-001	-199.310303	-6.378953
 388	1.9400e-001	-152.206421	-6.325279
 389	1.9450e-001	-102.378845	-6.308294
 390	1.9500e-001	-53.512573	-6.223368
 391	1.9550e-001	-4.325867	-6.171733
 392	1.9600e-001	46.623230	-6.118740
 393	1.9650e-001	101.097107	-6.073219
 394	1.9700e-001	148.841858	-6.029058
 395	1.9750e-001	198.829651	-5.993049
 396	1.9800e-001	246.574402	-5.935300
 397	1.9850e-001	298.004150	-5.880268
 398	1.9900e-001	350.395203	-5.827954
 399	1.9950e-001	398.139954	-5.773601
 400	2.0000e-001	447.486877	-5.729440
 401	2.0050e-001	498.756409	-5.696149
 402	2.0100e-001	546.981812	-5.626849
 403	2.0150e-001	596.969604	-5.580649
 404	2.0200e-001	644.554138	-5.541923
 405	2.0250e-001	693.099976	-5.459036
 406	2.0300e-001	741.966248	-5.413515
 407	2.0350e-001	793.716431	-5.349651
 408	2.0400e-001	841.941833	-5.273557
 409	2.0450e-001	895.935059	-5.215808
 410	2.0500e-001	944.000244	-5.146508
 411	2.0550e-001	993.988037	-5.075850
 412	2.0600e-001	1044.456482	-5.014703
 413	2.0650e-001	1096.366882	-4.933174
 414	2.0700e-001	1144.432068	-4.843493
 415	2.0750e-001	1195.381165	-4.759926
 416	2.0800e-001	1242.645264	-4.670923
 417	2.0850e-001	1293.113708	-4.573089
 418	2.0900e-001	1342.941284	-4.492239
 419	2.0950e-001	1391.326904	-4.384214
 420	2.1000e-001	1440.834045	-4.272111
 421	2.1050e-001	1493.545532	-4.136230
 422	2.1100e-001	1541.450500	-4.044510
 423	2.1150e-001	1591.278076	-3.907949
 424	2.1200e-001	1635.978699	-3.794488
 425	2.1250e-001	1691.093445	-3.653851
 426	2.1300e-001	1737.075806	-3.511176
 427	2.1350e-001	1789.787292	-3.355591
 428	2.1400e-001	1840.255737	-3.193213
 429	2.1450e-001	1905.303955	-3.024720
 430	2.1500e-001	1937.187195	-2.829051
 431	2.1550e-001	1989.738464	-2.605526
 432	2.1600e-001	2041.168213	-2.320854
 433	2.1650e-001	2090.995789	-1.981151
 434	2.1700e-001	2142.425537	-1.565354
 435	2.1750e-001	2190.650940	-1.053081
 436	2.1800e-001	2241.920471	-0.479661
 437	2.1850e-001	2290.306091	0.182760
 438	2.1900e-001	2339.973450	0.850618
 439	2.1950e-001	2387.397766	1.510322
 440	2.2000e-001	2438.827515	2.044336
 441	2.2050e-001	2488.334656	2.485950
 442	2.2100e-001	2534.156799	2.915336
 443	2.2150e-001	2593.597412	3.335209
 444	2.2200e-001	2637.657166	3.778183
 445	2.2250e-001	2686.523438	4.217079
 446	2.2300e-001	2738.113403	4.585997
 447	2.2350e-001	2785.217285	4.896486
 448	2.2400e-001	2835.365295	5.183876
 449	2.2450e-001	2885.032654	5.393812
 450	2.2500e-001	2935.661316	5.568420
 451	2.2550e-001	2985.328674	5.726042
 452	2.2600e-001	3036.437988	5.888421
 453	2.2650e-001	3085.464478	6.022264
 454	2.2700e-001	3139.457703	6.118740
 455	2.2750e-001	3188.323975	6.226086
 456	2.2800e-001	3237.991333	6.347700
 457	2.2850e-001	3289.741516	6.432626
 458	2.2900e-001	3337.165833	6.533857
 459	2.2950e-001	3385.231018	6.625577
 460	2.3000e-001	3433.296204	6.724091
 461	2.3050e-001	3483.924866	6.819208
 462	2.3100e-001	3532.951355	6.907531
 463	2.3150e-001	3581.497192	7.004687
 464	2.3200e-001	3630.043030	7.078742
 465	2.3250e-001	3684.997559	7.172500
 466	2.3300e-001	3730.339050	7.252670
 467	2.3350e-001	3783.531189	7.316534
 468	2.3400e-001	3834.800720	7.414369
 469	2.3450e-001	3885.108948	7.482310
 470	2.3500e-001	3934.455872	7.557044
 471	2.3550e-001	3983.001709	7.649444
 472	2.3600e-001	4034.751892	7.747958
 473	2.3650e-001	4085.540771	7.820654
 474	2.3700e-001	4132.965088	7.887236
 475	2.3750e-001	4184.555054	7.964009
 476	2.3800e-001	4233.100891	8.024476
 477	2.3850e-001	4282.287598	8.118235
 478	2.3900e-001	4331.314087	8.188214
 479	2.3950e-001	4380.661011	8.245284
 480	2.4000e-001	4434.173584	8.309148
 481	2.4050e-001	4481.277466	8.396792
 482	2.4100e-001	4530.944824	8.447068
 483	2.4150e-001	4577.568054	8.512291
 484	2.4200e-001	4629.959106	8.567323
 485	2.4250e-001	4680.427551	8.632546
 486	2.4300e-001	4732.017517	8.687578
 487	2.4350e-001	4784.889221	8.723586
 488	2.4400e-001	4833.435059	8.778618
 489	2.4450e-001	4886.146545	8.838406
 490	2.4500e-001	4930.206299	8.891400
 491	2.4550e-001	4983.078003	8.935561
 492	2.4600e-001	5028.419495	9.004181
 493	2.4650e-001	5080.009460	9.042228
 494	2.4700e-001	5128.875732	9.068725
 495	2.4750e-001	5179.183960	9.129872
 496	2.4800e-001	5227.569580	9.194415
 497	2.4850e-001	5278.999329	9.227706
 498	2.4900e-001	5327.865601	9.282738
 499	2.4950e-001	5378.173828	9.330297
 500	2.5000e-001	5426.559448	9.360870
 501	2.5050e-001	5479.110718	9.419299
 502	2.5100e-001	5439.697266	9.400276
 503	2.5150e-001	5390.510559	9.371741
 504	2.5200e-001	5343.406677	9.355435
 505	2.5250e-001	5296.623230	9.339129
 506	2.5300e-001	5244.873047	9.290891
 507	2.5350e-001	5198.730469	9.275265
 508	2.5400e-001	5145.698547	9.256921
 509	2.5450e-001	5096.992493	9.208683
 510	2.5500e-001	5050.529480	9.191018
 511	2.5550e-001	4999.580383	9.159086
 512	2.5600e-001	4947.029114	9.114925
 513	2.5650e-001	4899.925232	9.097940
 514	2.5700e-001	4845.771790	9.059213
 515	2.5750e-001	4796.264648	9.028640
 516	2.5800e-001	4746.437073	8.992631
 517	2.5850e-001	4690.361023	8.948470
 518	2.5900e-001	4650.466919	8.935561
 519	2.5950e-001	4597.595215	8.902950
 520	2.6000e-001	4547.447205	8.875094
 521	2.6050e-001	4502.586365	8.825497
 522	2.6100e-001	4450.035095	8.815986
 523	2.6150e-001	4400.688171	8.769107
 524	2.6200e-001	4349.739075	8.731060
 525	2.6250e-001	4302.635193	8.706601
 526	2.6300e-001	4251.686096	8.671272
 527	2.6350e-001	4203.620911	8.625072
 528	2.6400e-001	4151.710510	8.614881
 529	2.6450e-001	4103.645325	8.582949
 530	2.6500e-001	4054.138184	8.530635
 531	2.6550e-001	4002.868652	8.515688
 532	2.6600e-001	3954.002380	8.460656
 533	2.6650e-001	3903.854370	8.434159
 534	2.6700e-001	3850.181580	8.403586
 535	2.6750e-001	3800.674438	8.358745
 536	2.6800e-001	3753.250122	8.343118
 537	2.6850e-001	3703.422546	8.297598
 538	2.6900e-001	3652.473450	8.264987
 539	2.6950e-001	3602.966309	8.222184
 540	2.7000e-001	3552.177429	8.207237
 541	2.7050e-001	3505.554199	8.168511
 542	2.7100e-001	3453.964233	8.144732
 543	2.7150e-001	3406.219482	8.097852
 544	2.7200e-001	3357.673645	8.074753
 545	2.7250e-001	3307.685852	8.027874
 546	2.7300e-001	3256.416321	7.990506
 547	2.7350e-001	3206.588745	7.964689
 548	2.7400e-001	3155.158997	7.915771
 549	2.7450e-001	3104.850769	7.890633
 550	2.7500e-001	3053.741455	7.858022
 551	2.7550e-001	3005.195618	7.826769
 552	2.7600e-001	2954.727173	7.794837
 553	2.7650e-001	2908.424377	7.760867
 554	2.7700e-001	2854.270935	7.712629
 555	2.7750e-001	2802.841187	7.690888
 556	2.7800e-001	2755.737305	7.660994
 557	2.7850e-001	2707.031250	7.616832
 558	2.7900e-001	2654.640198	7.603244
 559	2.7950e-001	2607.376099	7.553647
 560	2.8000e-001	2555.946350	7.514921
 561	2.8050e-001	2509.162903	7.476195
 562	2.8100e-001	2458.374023	7.442225
 563	2.8150e-001	2411.109924	7.401460
 564	2.8200e-001	2360.321045	7.363413
 565	2.8250e-001	2310.813904	7.316534
 566	2.8300e-001	2260.826111	7.275770
 567	2.8350e-001	2209.556580	7.243158
 568	2.8400e-001	2156.044006	7.213264
 569	2.8450e-001	2109.580994	7.157553
 570	2.8500e-001	2056.709290	7.133774
 571	2.8550e-001	2007.843018	7.091651
 572	2.8600e-001	1955.612183	7.053604
 573	2.8650e-001	1907.546997	7.029825
 574	2.8700e-001	1857.238770	6.998572
 575	2.8750e-001	1811.416626	6.932669
 576	2.8800e-001	1759.826660	6.889187
 577	2.8850e-001	1711.761475	6.853179
 578	2.8900e-001	1660.171509	6.817170
 579	2.8950e-001	1612.907410	6.781841
 580	2.9000e-001	1559.074402	6.740397
 581	2.9050e-001	1513.252258	6.686724
 582	2.9100e-001	1461.181641	6.659548
 583	2.9150e-001	1412.155151	6.608592
 584	2.9200e-001	1362.968445	6.575301
 585	2.9250e-001	1314.743042	6.525705
 586	2.9300e-001	1261.711121	6.480184
 587	2.9350e-001	1211.402893	6.431946
 588	2.9400e-001	1161.895752	6.389823
 589	2.9450e-001	1108.222961	6.350418
 590	2.9500e-001	1059.677124	6.308294
 591	2.9550e-001	1009.689331	6.267530
 592	2.9600e-001	961.624146	6.224048
 593	2.9650e-001	910.835266	6.175131
 594	2.9700e-001	864.852905	6.135725
 595	2.9750e-001	815.666199	6.093602
 596	2.9800e-001	762.474060	6.037890
 597	2.9850e-001	716.491699	6.000523
 598	2.9900e-001	665.863037	5.944132
 599	2.9950e-001	613.952637	5.900650
 600	3.0000e-001	565.246582	5.834068
 601	3.0050e-001	518.783569	5.763410
 602	3.0100e-001	464.149475	5.719928
 603	3.0150e-001	415.443420	5.681202
 604	3.0200e-001	363.372803	5.639078
 605	3.0250e-001	316.108704	5.569099
 606	3.0300e-001	264.198303	5.501838
 607	3.0350e-001	215.332031	5.447486
 608	3.0400e-001	163.261414	5.380224
 609	3.0450e-001	116.958618	5.317719
 610	3.0500e-001	62.484741	5.269481
 611	3.0550e-001	14.739990	5.194067
 612	3.0600e-001	-34.927368	5.132241
 613	3.0650e-001	-85.395813	5.073132
 614	3.0700e-001	-134.582520	4.999756
 615	3.0750e-001	-182.487488	4.914830
 616	3.0800e-001	-232.475281	4.843493
 617	3.0850e-001	-278.297424	4.759926
 618	3.0900e-001	-329.727173	4.687909
 619	3.0950e-001	-379.394531	4.585997
 620	3.1000e-001	-432.266235	4.502430
 621	3.1050e-001	-479.370117	4.396443
 622	3.1100e-001	-532.562256	4.284341
 623	3.1150e-001	-582.710266	4.151856
 624	3.1200e-001	-633.499146	4.040434
 625	3.1250e-001	-682.685852	3.882811
 626	3.1300e-001	-732.833862	3.717715
 627	3.1350e-001	-781.860352	3.540390
 628	3.1400e-001	-829.124451	3.292406
 629	3.1450e-001	-874.145508	3.048499
 630	3.1500e-001	-928.459167	2.695208
 631	3.1550e-001	-980.850220	2.247478
 632	3.1600e-001	-1028.755188	1.634653
 633	3.1650e-001	-1074.096680	0.798983
 634	3.1700e-001	-1129.051208	-0.237792
 635	3.1750e-001	-1174.232483	-1.392105
 636	3.1800e-001	-1228.866577	-2.477797
 637	3.1850e-001	-1277.893066	-3.475846
 638	3.1900e-001	-1325.798035	-4.322388
 639	3.1950e-001	-1378.509521	-5.022177
 640	3.2000e-001	-1428.977966	-5.585405
 641	3.2050e-001	-1478.324890	-5.993049
 642	3.2100e-001	-1530.876160	-6.270927
 643	3.2150e-001	-1578.620911	-6.470673
 644	3.2200e-001	-1629.249573	-6.636448
 645	3.2250e-001	-1678.916931	-6.789314
 646	3.2300e-001	-1727.943420	-6.937425
 647	3.2350e-001	-1775.047302	-7.037977
 648	3.2400e-001	-1827.758789	-7.118147
 649	3.2450e-001	-1873.100281	-7.175218
 650	3.2500e-001	-1925.971985	-7.246555
 651	3.2550e-001	-1974.357605	-7.287320
 652	3.2600e-001	-2008.644104	-7.357299
 653	3.2650e-001	-2072.250366	-7.425239
 654	3.2700e-001	-2125.122070	-7.447660
 655	3.2750e-001	-2176.391602	-7.512204
 656	3.2800e-001	-2227.180481	-7.561121
 657	3.2850e-001	-2274.925232	-7.589656
 658	3.2900e-001	-2327.636719	-7.640611
 659	3.2950e-001	-2373.458862	-7.690888
 660	3.3000e-001	-2425.529480	-7.723499
 661	3.3050e-001	-2474.716187	-7.769019
 662	3.3100e-001	-2523.902893	-7.829487
 663	3.3150e-001	-2572.288513	-7.866854
 664	3.3200e-001	-2625.640869	-7.908298
 665	3.3250e-001	-2672.264099	-7.947024
 666	3.3300e-001	-2722.892761	-7.984391
 667	3.3350e-001	-2769.676208	-8.048256
 668	3.3400e-001	-2822.227478	-8.072714
 669	3.3450e-001	-2871.574402	-8.109402
 670	3.3500e-001	-2921.882629	-8.152205
 671	3.3550e-001	-2971.069336	-8.183458
 672	3.3600e-001	-3022.338867	-8.234413
 673	3.3650e-001	-3073.768616	-8.264307
 674	3.3700e-001	-3124.076843	-8.313224
 675	3.3750e-001	-3172.142029	-8.354668
 676	3.3800e-001	-3225.654602	-8.392715
 677	3.3850e-001	-3273.239136	-8.438915
 678	3.3900e-001	-3324.348450	-8.466770
 679	3.3950e-001	-3373.054504	-8.494626
 680	3.4000e-001	-3419.517517	-8.553055
 681	3.4050e-001	-3467.582703	-8.596537
 682	3.4100e-001	-3519.332886	-8.640019
 683	3.4150e-001	-3567.398071	-8.683501
 684	3.4200e-001	-3619.148254	-8.739213
 685	3.4250e-001	-3667.373657	-8.777259
 686	3.4300e-001	-3718.162537	-8.824139
 687	3.4350e-001	-3768.951416	-8.854032
 688	3.4400e-001	-3821.022034	-8.897515
 689	3.4450e-001	-3870.368958	-8.952546
 690	3.4500e-001	-3923.080444	-8.964776
 691	3.4550e-001	-3970.985413	-9.010296
 692	3.4600e-001	-4022.415161	-9.076199
 693	3.4650e-001	-4070.320129	-9.087069
 694	3.4700e-001	-4122.550964	-9.119681
 695	3.4750e-001	-4168.052673	-9.183545
 696	3.4800e-001	-4219.161987	-9.203927
 697	3.4850e-001	-4266.105652	-9.268471
 698	3.4900e-001	-4319.618225	-9.313312
 699	3.4950e-001	-4366.241455	-9.333694
 700	3.5000e-001	-4416.389465	-9.377176
 701	3.5050e-001	-4466.217041	-9.419299
 702	3.5100e-001	-4431.610107	-9.406390
 703	3.5150e-001	-4386.428833	-9.386688
 704	3.5200e-001	-4342.048645	-9.366985
 705	3.5250e-001	-4282.127380	-9.300403
 706	3.5300e-001	-4234.703064	-9.292929
 707	3.5350e-001	-4185.516357	-9.260997
 708	3.5400e-001	-4135.528564	-9.217515
 709	3.5450e-001	-4087.463379	-9.180148
 710	3.5500e-001	-4036.834717	-9.143460
 711	3.5550e-001	-3987.968445	-9.116284
 712	3.5600e-001	-3938.461304	-9.073481
 713	3.5650e-001	-3883.346558	-9.048343
 714	3.5700e-001	-3835.441589	-9.008937
 715	3.5750e-001	-3787.055969	-8.974967
 716	3.5800e-001	-3736.587524	-8.942355
 717	3.5850e-001	-3689.483643	-8.907026
 718	3.5900e-001	-3635.490417	-8.878491
 719	3.5950e-001	-3587.745667	-8.841124
 720	3.6000e-001	-3537.918091	-8.801718
 721	3.6050e-001	-3487.129211	-8.772504
 722	3.6100e-001	-3436.019897	-8.741930
 723	3.6150e-001	-3387.153625	-8.703884
 724	3.6200e-001	-3340.209961	-8.678066
 725	3.6250e-001	-3290.542603	-8.619637
 726	3.6300e-001	-3241.996765	-8.601293
 727	3.6350e-001	-3191.047668	-8.563246
 728	3.6400e-001	-3141.540527	-8.525879
 729	3.6450e-001	-3089.630127	-8.481038
 730	3.6500e-001	-3043.006897	-8.449785
 731	3.6550e-001	-2992.057800	-8.413097
 732	3.6600e-001	-2941.108704	-8.387959
 733	3.6650e-001	-2890.319824	-8.326133
 734	3.6700e-001	-2838.890076	-8.317301
 735	3.6750e-001	-2790.023804	-8.267704
 736	3.6800e-001	-2740.516663	-8.246643
 737	3.6850e-001	-2689.567566	-8.199763
 738	3.6900e-001	-2640.380859	-8.175305
 739	3.6950e-001	-2590.713501	-8.117555
 740	3.7000e-001	-2544.410706	-8.089020
 741	3.7050e-001	-2496.826172	-8.061164
 742	3.7100e-001	-2445.236206	-8.019041
 743	3.7150e-001	-2395.248413	-7.969445
 744	3.7200e-001	-2346.382141	-7.934115
 745	3.7250e-001	-2294.631958	-7.884519
 746	3.7300e-001	-2244.003296	-7.843754
 747	3.7350e-001	-2194.335938	-7.802990
 748	3.7400e-001	-2144.668579	-7.780569
 749	3.7450e-001	-2093.559265	-7.744561
 750	3.7500e-001	-2044.052124	-7.687491
 751	3.7550e-001	-1991.500854	-7.658276
 752	3.7600e-001	-1943.916321	-7.624306
 753	3.7650e-001	-1890.884399	-7.574030
 754	3.7700e-001	-1844.421387	-7.548212
 755	3.7750e-001	-1793.151855	-7.521715
 756	3.7800e-001	-1747.489929	-7.471439
 757	3.7850e-001	-1696.701050	-7.430675
 758	3.7900e-001	-1644.950867	-7.385154
 759	3.7950e-001	-1598.487854	-7.353222
 760	3.8000e-001	-1546.577454	-7.314496
 761	3.8050e-001	-1497.871399	-7.283923
 762	3.8100e-001	-1447.563171	-7.235685
 763	3.8150e-001	-1396.774292	-7.202394
 764	3.8200e-001	-1355.438232	-7.148041
 765	3.8250e-001	-1296.638489	-7.115430
 766	3.8300e-001	-1247.612000	-7.073307
 767	3.8350e-001	-1198.425293	-7.015557
 768	3.8400e-001	-1148.277283	-6.984984
 769	3.8450e-001	-1093.803406	-6.939463
 770	3.8500e-001	-1046.058655	-6.911608
 771	3.8550e-001	-995.109558	-6.864729
 772	3.8600e-001	-945.121765	-6.824644
 773	3.8650e-001	-897.377014	-6.777765
 774	3.8700e-001	-850.593567	-6.723412
 775	3.8750e-001	-800.125122	-6.692839
 776	3.8800e-001	-750.137329	-6.643242
 777	3.8850e-001	-700.950623	-6.601798
 778	3.8900e-001	-646.797180	-6.542690
 779	3.8950e-001	-602.096558	-6.505322
 780	3.9000e-001	-551.628113	-6.448932
 781	3.9050e-001	-500.679016	-6.409526
 782	3.9100e-001	-450.370789	-6.362647
 783	3.9150e-001	-400.543213	-6.313730
 784	3.9200e-001	-351.036072	-6.270248
 785	3.9250e-001	-297.523499	-6.232880
 786	3.9300e-001	-249.298096	-6.169695
 787	3.9350e-001	-199.790955	-6.134366
 788	3.9400e-001	-149.642944	-6.079334
 789	3.9450e-001	-100.616455	-6.044005
 790	3.9500e-001	-52.391052	-6.001202
 791	3.9550e-001	-1.281738	-5.956361
 792	3.9600e-001	47.103882	-5.899971
 793	3.9650e-001	99.975586	-5.853092
 794	3.9700e-001	145.317078	-5.808930
 795	3.9750e-001	198.028564	-5.760013
 796	3.9800e-001	240.325928	-5.702263
 797	3.9850e-001	293.838501	-5.642475
 798	3.9900e-001	342.544556	-5.589482
 799	3.9950e-001	395.095825	-5.543961
 800	4.0000e-001	446.044922	-5.484853
 801	4.0050e-001	501.800537	-5.416233

Center data before PMax,±Pr and ±Vc Calc.

PMax (µC/cm2):	9.42e+000
Pr (µC/cm2):	5.18e+000
-Pr (µC/cm2):	-5.42e+000
Vc:	2.28e+001
-Vc:	-1.12e+001
C (Max-Eff) (nF):	1.17e-002
K (Eff):	2.13e+001
Vert. (±Pr) Shift (µC/cm2):	-1.20e-001
Horiz. Shift (±Vc):	5.80e+000
Offset (µC/cm2):	5.91e+000

A (Loop Area - µC/cm2·Volts):	4.16e+002



Hysteresis Version: 5.16.2 - Radiant Technologies, Inc., 1999 - 3/20/18

