»»»»»»»»»»»»»»»»»»»»»»»»»»»»»»»»»»»» Hysteresis ««««««««««««««««««««««««««««««««««««
»»»  Executed Version:	5.16.2
»»»  Vision Version:	5.16.10 (R)
»»»  Vision Compiled:	4/26/18
»»»  Driver Version:	5.16.6
»»»  Windows Version:	Windows 8
»»»  Processor Information:	x86 (AMD or Intel) - 8 Processors
»»»  Tester Name:	PPM21016-863
»»»  Tester S/N:	PPM21016-863
»»»  Internal Amp Type:	 RTI ML200V    
»»»  Internal Amp S/N:	 iAB2-0000     
»»»  Execution Count:	1
»»»»»»»»»»»»»»»»»»»»»»»»»»»»»»»»»»»»»»»»»»««««««««««««««««««««««««««««««««««««««««««

Stored:	9/13/2018 - 12:20:15
Configured:	09/13/18 11:32:50 AM
Executed:	09/13/18 12:19:49 PM

»»»»»»»»»»»»»»»»»»»»»»»»»»»»»»»»»»» Sample Info ««««««««««««««««««««««««««««««««««««
Sample Name:	
Lot Name:	
Wafer Name:	
Die Row/Column:	0/0
Capacitor Number:	0
Sample Area (cm2):	7.85e-005
Sample Thickness (µm):	1.00e-001

Mux Loop Adjustment:	Disabled

Amplifier:	Internal

»»»»»»»»»»»»»»»»»»»»»»»»»»»»»»»»»»» Tester Info «««««««««««««««««««««««««««««««««««
Tester Name:	PPM21016-863
Tester Serial Number:	PPM21016-863
Return Signal Amp. Level:	0.21 [Index: 2]

»»»»»»»»»»»»»»»»»»»»»»»»»»»»»»»» Hysteresis Info ««««««««««««««««««««««««««««««««««
Task Name:	Hyst-1
Volts:	2.50
Field:	250.00 (kV/cm)
Hysteresis Period (ms):	4.00e-001
Preset:	Enabled
Preset Delay (ms):	4.00e-001
Profile:	Double Bipolar

»»»»»»»»»»»»»»»»»»»»»»»»»»»»»»»»»»»»»» Data «««««««««««««««««««««««««««««««««««««««
Points:	801

Valid Data

Point	Time (ms)	Field (kV/cm)	Measured Polarization
   1	5.0000e-004	0.175476	-34.451580
   2	1.0000e-003	2.433777	-34.324731
   3	1.5000e-003	4.692078	-34.222277
   4	2.0000e-003	7.553101	-34.222277
   5	2.5000e-003	9.658813	-33.953943
   6	3.0000e-003	12.222290	-33.856367
   7	3.5000e-003	14.892578	-33.661216
   8	4.0000e-003	17.333984	-33.456307
   9	4.5000e-003	19.859314	-33.295307
  10	5.0000e-003	22.636414	-33.134306
  11	5.5000e-003	25.047302	-32.919640
  12	6.0000e-003	27.252197	-32.690337
  13	6.5000e-003	29.930115	-32.490306
  14	7.0000e-003	32.615662	-32.197579
  15	7.5000e-003	34.652710	-32.041457
  16	8.0000e-003	37.132263	-31.821912
  17	8.5000e-003	39.932251	-31.519427
  18	9.0000e-003	42.358398	-31.265730
  19	9.5000e-003	45.013428	-30.992517
  20	1.0000e-002	47.286987	-30.675396
  21	1.0500e-002	49.583435	-30.450972
  22	1.1000e-002	52.108765	-30.085062
  23	1.1500e-002	54.679871	-29.728911
  24	1.2000e-002	57.319641	-29.406910
  25	1.2500e-002	59.516907	-29.045880
  26	1.3000e-002	62.263489	-28.636062
  27	1.3500e-002	64.544678	-28.177455
  28	1.4000e-002	67.329407	-27.796910
  29	1.4500e-002	69.778442	-27.250485
  30	1.5000e-002	72.189331	-26.733333
  31	1.5500e-002	74.714661	-26.191787
  32	1.6000e-002	77.186584	-25.455090
  33	1.6500e-002	79.727173	-24.776938
  34	1.7000e-002	82.206726	-23.810938
  35	1.7500e-002	84.587097	-22.927876
  36	1.8000e-002	86.936951	-21.874058
  37	1.8500e-002	89.393616	-20.693390
  38	1.9000e-002	91.880798	-19.356602
  39	1.9500e-002	93.490601	-18.014934
  40	2.0000e-002	96.786499	-16.356146
  41	2.0500e-002	99.037170	-14.609538
  42	2.1000e-002	101.791382	-12.809265
  43	2.1500e-002	104.118347	-10.711385
  44	2.2000e-002	106.674194	-8.276868
  45	2.2500e-002	109.077454	-5.993594
  46	2.3000e-002	111.534119	-3.456623
  47	2.3500e-002	113.807678	-0.787925
  48	2.4000e-002	115.913391	2.032016
  49	2.4500e-002	118.690491	4.930018
  50	2.5000e-002	121.360779	7.959747
  51	2.5500e-002	123.703003	11.004112
  52	2.6000e-002	125.724792	14.111902
  53	2.6500e-002	129.043579	17.283116
  54	2.7000e-002	131.019592	20.371390
  55	2.7500e-002	133.712769	23.357210
  56	2.8000e-002	136.436462	26.274727
  57	2.8500e-002	138.923645	28.982456
  58	2.9000e-002	141.670227	31.353548
  59	2.9500e-002	144.477844	33.344094
  60	3.0000e-002	146.934509	34.729671
  61	3.0500e-002	149.566650	35.602975
  62	3.1000e-002	152.275085	36.276248
  63	3.1500e-002	154.708862	36.661672
  64	3.2000e-002	157.356262	36.959278
  65	3.2500e-002	159.690857	37.154430
  66	3.3000e-002	162.559509	37.349582
  67	3.3500e-002	165.016174	37.466673
  68	3.4000e-002	167.228699	37.783794
  69	3.4500e-002	170.051575	37.959430
  70	3.5000e-002	172.668457	38.096037
  71	3.5500e-002	175.109863	38.349734
  72	3.6000e-002	177.139282	38.408279
  73	3.6500e-002	180.076599	38.598552
  74	3.7000e-002	182.464600	38.774188
  75	3.7500e-002	184.822083	38.910795
  76	3.8000e-002	187.507629	39.091310
  77	3.8500e-002	188.987732	39.223037
  78	3.9000e-002	192.390442	39.403552
  79	3.9500e-002	195.083618	39.510886
  80	4.0000e-002	197.242737	39.749947
  81	4.0500e-002	199.798584	39.764583
  82	4.1000e-002	202.377319	39.881674
  83	4.1500e-002	204.925537	40.154886
  84	4.2000e-002	207.519531	40.228068
  85	4.2500e-002	209.587097	40.306129
  86	4.3000e-002	212.539673	40.545189
  87	4.3500e-002	214.714050	40.676917
  88	4.4000e-002	217.353821	40.833038
  89	4.4500e-002	220.191956	41.028190
  90	4.5000e-002	222.053528	41.106250
  91	4.5500e-002	224.960327	41.237978
  92	4.6000e-002	227.363586	41.369705
  93	4.6500e-002	229.789734	41.516069
  94	4.7000e-002	232.337952	41.750251
  95	4.7500e-002	235.031128	41.862463
  96	4.8000e-002	237.113953	41.940524
  97	4.8500e-002	239.715576	42.052736
  98	4.9000e-002	243.003845	42.316190
  99	4.9500e-002	244.857788	42.330827
 100	5.0000e-002	247.497559	42.584524
 101	5.0500e-002	249.519348	42.769918
 102	5.1000e-002	247.489929	42.662585
 103	5.1500e-002	244.926453	42.686978
 104	5.2000e-002	242.546082	42.730888
 105	5.2500e-002	239.936829	42.643069
 106	5.3000e-002	237.434387	42.686978
 107	5.3500e-002	235.084534	42.686978
 108	5.4000e-002	231.941223	42.550372
 109	5.4500e-002	229.812622	42.589403
 110	5.5000e-002	227.317810	42.486948
 111	5.5500e-002	225.028992	42.413766
 112	5.6000e-002	222.442627	42.384493
 113	5.6500e-002	220.085144	42.404009
 114	5.7000e-002	217.247009	42.262524
 115	5.7500e-002	215.011597	42.335706
 116	5.8000e-002	212.379456	42.243009
 117	5.8500e-002	209.877014	42.218615
 118	5.9000e-002	207.405090	42.155190
 119	5.9500e-002	205.017090	42.174705
 120	6.0000e-002	202.484131	42.033221
 121	6.0500e-002	199.752808	41.964917
 122	6.1000e-002	197.555542	41.842948
 123	6.1500e-002	194.847107	41.774645
 124	6.2000e-002	192.459106	41.774645
 125	6.2500e-002	189.949036	41.672190
 126	6.3000e-002	187.538147	41.574614
 127	6.3500e-002	184.860229	41.452644
 128	6.4000e-002	182.449341	41.525826
 129	6.4500e-002	179.862976	41.325796
 130	6.5000e-002	177.436829	41.359947
 131	6.5500e-002	174.964905	41.350190
 132	6.6000e-002	172.355652	41.159917
 133	6.6500e-002	170.135498	40.998917
 134	6.7000e-002	167.381287	40.998917
 135	6.7500e-002	165.031433	40.867190
 136	6.8000e-002	162.536621	40.823280
 137	6.8500e-002	159.889221	40.774493
 138	6.9000e-002	157.218933	40.569583
 139	6.9500e-002	154.945374	40.589099
 140	7.0000e-002	152.549744	40.447614
 141	7.0500e-002	149.955750	40.359795
 142	7.1000e-002	147.369385	40.267098
 143	7.1500e-002	145.133972	40.174401
 144	7.2000e-002	142.120361	40.052432
 145	7.2500e-002	139.976501	39.959735
 146	7.3000e-002	137.466431	39.842644
 147	7.3500e-002	134.941101	39.735310
 148	7.4000e-002	132.492065	39.706037
 149	7.4500e-002	129.981995	39.642613
 150	7.5000e-002	127.304077	39.476734
 151	7.5500e-002	125.175476	39.369401
 152	7.6000e-002	122.573853	39.198643
 153	7.6500e-002	119.934082	39.125461
 154	7.7000e-002	117.736816	39.013249
 155	7.7500e-002	115.074158	38.930310
 156	7.8000e-002	112.266541	38.852249
 157	7.8500e-002	110.290527	38.637582
 158	7.9000e-002	107.719421	38.500976
 159	7.9500e-002	105.537415	38.554643
 160	8.0000e-002	102.386475	38.374128
 161	8.0500e-002	99.975586	38.305825
 162	8.1000e-002	97.244263	38.081400
 163	8.1500e-002	94.779968	37.988703
 164	8.2000e-002	92.491150	37.808188
 165	8.2500e-002	90.133667	37.730127
 166	8.3000e-002	87.249756	37.710612
 167	8.3500e-002	84.747314	37.574006
 168	8.4000e-002	82.679749	37.349582
 169	8.4500e-002	79.711914	37.237369
 170	8.5000e-002	77.606201	37.169066
 171	8.5500e-002	75.187683	36.973915
 172	8.6000e-002	72.525024	36.749490
 173	8.6500e-002	70.083618	36.671430
 174	8.7000e-002	67.581177	36.549460
 175	8.7500e-002	64.781189	36.407975
 176	8.8000e-002	62.583923	36.217702
 177	8.8500e-002	59.989929	36.071338
 178	8.9000e-002	57.403564	35.993278
 179	8.9500e-002	54.954529	35.846914
 180	9.0000e-002	52.101135	35.666399
 181	9.0500e-002	49.957275	35.476126
 182	9.1000e-002	47.149658	35.349277
 183	9.1500e-002	45.127869	35.027277
 184	9.2000e-002	42.083740	35.002883
 185	9.2500e-002	40.161133	34.754065
 186	9.3000e-002	37.612915	34.432065
 187	9.3500e-002	34.965515	34.383277
 188	9.4000e-002	32.432556	34.149095
 189	9.4500e-002	30.197144	33.875883
 190	9.5000e-002	27.259827	33.739277
 191	9.5500e-002	25.444031	33.549004
 192	9.6000e-002	22.438049	33.183094
 193	9.6500e-002	19.920349	33.002579
 194	9.7000e-002	17.623901	32.739124
 195	9.7500e-002	15.289307	32.573246
 196	9.8000e-002	12.229919	32.207336
 197	9.8500e-002	10.131836	31.929245
 198	9.9000e-002	7.682800	31.587730
 199	9.9500e-002	5.226135	31.260851
 200	1.0000e-001	2.655029	30.953487
 201	1.0050e-001	0.328064	30.533911
 202	1.0100e-001	-2.021790	30.172881
 203	1.0150e-001	-5.050659	29.767941
 204	1.0200e-001	-7.347107	29.236153
 205	1.0250e-001	-10.017395	28.660455
 206	1.0300e-001	-12.565613	28.094516
 207	1.0350e-001	-14.785767	27.387091
 208	1.0400e-001	-17.166138	26.699182
 209	1.0450e-001	-19.821167	25.923454
 210	1.0500e-001	-22.064209	24.986726
 211	1.0550e-001	-24.299622	23.869483
 212	1.0600e-001	-27.229309	22.888846
 213	1.0650e-001	-29.380798	21.503270
 214	1.0700e-001	-31.967163	20.181117
 215	1.0750e-001	-34.286499	18.600389
 216	1.0800e-001	-36.827087	16.985510
 217	1.0850e-001	-39.466858	15.170599
 218	1.0900e-001	-41.877747	13.331295
 219	1.0950e-001	-44.624329	11.126082
 220	1.1000e-001	-46.676636	8.920869
 221	1.1050e-001	-49.110413	6.647352
 222	1.1100e-001	-51.864624	4.003048
 223	1.1150e-001	-53.710938	1.314834
 224	1.1200e-001	-56.236267	-1.392895
 225	1.1250e-001	-59.127808	-4.125017
 226	1.1300e-001	-61.279297	-7.057171
 227	1.1350e-001	-63.842773	-10.013718
 228	1.1400e-001	-66.406250	-13.092235
 229	1.1450e-001	-68.840027	-16.004873
 230	1.1500e-001	-71.449280	-18.946783
 231	1.1550e-001	-74.417114	-22.000906
 232	1.1600e-001	-76.423645	-24.650090
 233	1.1650e-001	-79.429626	-27.060212
 234	1.1700e-001	-81.748962	-29.460577
 235	1.1750e-001	-84.556580	-31.407215
 236	1.1800e-001	-87.219238	-32.734246
 237	1.1850e-001	-89.988708	-33.812458
 238	1.1900e-001	-92.346191	-34.549156
 239	1.1950e-001	-94.955444	-35.061429
 240	1.2000e-001	-97.579956	-35.451732
 241	1.2050e-001	-99.716187	-35.817641
 242	1.2100e-001	-102.508545	-36.085975
 243	1.2150e-001	-105.079651	-36.329914
 244	1.2200e-001	-107.353210	-36.554339
 245	1.2250e-001	-110.099792	-36.788521
 246	1.2300e-001	-112.373352	-36.993430
 247	1.2350e-001	-114.891052	-37.198339
 248	1.2400e-001	-117.591858	-37.388612
 249	1.2450e-001	-119.720459	-37.510582
 250	1.2500e-001	-122.489929	-37.666703
 251	1.2550e-001	-125.236511	-37.900885
 252	1.2600e-001	-127.243042	-38.149703
 253	1.2650e-001	-129.852295	-38.359491
 254	1.2700e-001	-131.027222	-38.500976
 255	1.2750e-001	-135.345459	-38.657097
 256	1.2800e-001	-137.367249	-38.803461
 257	1.2850e-001	-139.884949	-38.998613
 258	1.2900e-001	-142.471313	-39.252310
 259	1.2950e-001	-145.179749	-39.232795
 260	1.3000e-001	-147.308350	-39.471855
 261	1.3050e-001	-150.283813	-39.671886
 262	1.3100e-001	-152.832031	-39.823128
 263	1.3150e-001	-155.380249	-39.998765
 264	1.3200e-001	-157.363892	-40.130492
 265	1.3250e-001	-159.919739	-40.286614
 266	1.3300e-001	-162.384033	-40.359795
 267	1.3350e-001	-164.703369	-40.501280
 268	1.3400e-001	-167.259216	-40.603735
 269	1.3450e-001	-169.906616	-40.857432
 270	1.3500e-001	-172.683716	-40.940371
 271	1.3550e-001	-174.972534	-41.120887
 272	1.3600e-001	-177.589417	-41.237978
 273	1.3650e-001	-180.053711	-41.369705
 274	1.3700e-001	-182.518005	-41.501432
 275	1.3750e-001	-185.134888	-41.633160
 276	1.3800e-001	-187.423706	-41.842948
 277	1.3850e-001	-190.147400	-41.950281
 278	1.3900e-001	-192.459106	-41.950281
 279	1.3950e-001	-194.915771	-42.169827
 280	1.4000e-001	-197.547913	-42.262524
 281	1.4050e-001	-200.180054	-42.482069
 282	1.4100e-001	-202.491760	-42.589403
 283	1.4150e-001	-205.070496	-42.735766
 284	1.4200e-001	-207.206726	-42.765039
 285	1.4250e-001	-210.037231	-42.940676
 286	1.4300e-001	-212.615967	-43.087039
 287	1.4350e-001	-214.874268	-43.213888
 288	1.4400e-001	-217.552185	-43.438312
 289	1.4450e-001	-220.092773	-43.399282
 290	1.4500e-001	-222.541809	-43.545646
 291	1.4550e-001	-224.868774	-43.774949
 292	1.4600e-001	-227.661133	-43.804222
 293	1.4650e-001	-229.843140	-43.984737
 294	1.4700e-001	-232.650757	-44.092070
 295	1.4750e-001	-234.741211	-44.243313
 296	1.4800e-001	-237.556458	-44.296979
 297	1.4850e-001	-240.211487	-44.389676
 298	1.4900e-001	-242.355347	-44.497010
 299	1.4950e-001	-245.002747	-44.726313
 300	1.5000e-001	-247.474670	-44.799495
 301	1.5050e-001	-250.091553	-44.940980
 302	1.5100e-001	-247.375488	-44.955616
 303	1.5150e-001	-245.094299	-44.892192
 304	1.5200e-001	-242.492676	-44.848283
 305	1.5250e-001	-240.043640	-44.745828
 306	1.5300e-001	-237.472534	-44.633616
 307	1.5350e-001	-234.985352	-44.584828
 308	1.5400e-001	-232.360840	-44.589707
 309	1.5450e-001	-230.377197	-44.414070
 310	1.5500e-001	-227.279663	-44.448222
 311	1.5550e-001	-224.983215	-44.414070
 312	1.5600e-001	-222.557068	-44.336010
 313	1.5650e-001	-220.169067	-44.218919
 314	1.5700e-001	-217.117310	-44.111585
 315	1.5750e-001	-215.049744	-44.092070
 316	1.5800e-001	-212.486267	-43.955464
 317	1.5850e-001	-210.456848	-43.896919
 318	1.5900e-001	-207.336426	-43.892040
 319	1.5950e-001	-205.169678	-43.750555
 320	1.6000e-001	-202.552795	-43.662737
 321	1.6050e-001	-199.768066	-43.594434
 322	1.6100e-001	-197.463989	-43.560282
 323	1.6150e-001	-195.091248	-43.487100
 324	1.6200e-001	-192.474365	-43.428555
 325	1.6250e-001	-189.697266	-43.296827
 326	1.6300e-001	-188.079834	-43.126070
 327	1.6350e-001	-184.852600	-43.218767
 328	1.6400e-001	-182.746887	-43.067524
 329	1.6450e-001	-179.885864	-42.916282
 330	1.6500e-001	-177.734375	-42.911403
 331	1.6550e-001	-174.911499	-42.774797
 332	1.6600e-001	-172.637939	-42.706494
 333	1.6650e-001	-170.036316	-42.579645
 334	1.6700e-001	-167.938232	-42.433281
 335	1.6750e-001	-165.000916	-42.545494
 336	1.6800e-001	-162.406921	-42.394251
 337	1.6850e-001	-160.110474	-42.238130
 338	1.6900e-001	-157.394409	-42.052736
 339	1.6950e-001	-155.052185	-41.955160
 340	1.7000e-001	-152.473450	-42.013705
 341	1.7050e-001	-150.115967	-41.886857
 342	1.7100e-001	-147.537231	-41.779523
 343	1.7150e-001	-144.866943	-41.574614
 344	1.7200e-001	-142.440796	-41.520948
 345	1.7250e-001	-139.953613	-41.481917
 346	1.7300e-001	-137.741089	-41.291644
 347	1.7350e-001	-135.025024	-41.198947
 348	1.7400e-001	-132.705688	-41.076978
 349	1.7450e-001	-130.004883	-40.969644
 350	1.7500e-001	-127.189636	-40.891584
 351	1.7550e-001	-125.457764	-40.833038
 352	1.7600e-001	-122.657776	-40.691553
 353	1.7650e-001	-120.025635	-40.637886
 354	1.7700e-001	-117.759705	-40.472008
 355	1.7750e-001	-114.982605	-40.325644
 356	1.7800e-001	-112.609863	-40.242704
 357	1.7850e-001	-110.031128	-40.071947
 358	1.7900e-001	-107.177734	-39.935341
 359	1.7950e-001	-104.980469	-39.803613
 360	1.8000e-001	-102.767944	-39.735310
 361	1.8050e-001	-100.036621	-39.667007
 362	1.8100e-001	-97.572327	-39.510886
 363	1.8150e-001	-94.940186	-39.432825
 364	1.8200e-001	-92.727661	-39.335249
 365	1.8250e-001	-90.072632	-39.242552
 366	1.8300e-001	-87.623596	-39.101067
 367	1.8350e-001	-85.159302	-38.881522
 368	1.8400e-001	-82.588196	-38.671734
 369	1.8450e-001	-80.223083	-38.671734
 370	1.8500e-001	-77.682495	-38.496097
 371	1.8550e-001	-75.019836	-38.476582
 372	1.8600e-001	-72.669983	-38.305825
 373	1.8650e-001	-70.022583	-38.159461
 374	1.8700e-001	-67.436218	-38.017976
 375	1.8750e-001	-65.025330	-37.822824
 376	1.8800e-001	-62.667847	-37.715491
 377	1.8850e-001	-60.020447	-37.520339
 378	1.8900e-001	-57.693481	-37.432521
 379	1.8950e-001	-55.130005	-37.291036
 380	1.9000e-001	-52.467346	-37.144672
 381	1.9050e-001	-50.437927	-37.037339
 382	1.9100e-001	-47.821045	-36.871460
 383	1.9150e-001	-45.051575	-36.734854
 384	1.9200e-001	-42.739868	-36.554339
 385	1.9250e-001	-39.901733	-36.354308
 386	1.9300e-001	-37.605286	-36.271369
 387	1.9350e-001	-35.423279	-35.978641
 388	1.9400e-001	-32.875061	-35.915217
 389	1.9450e-001	-29.884338	-35.720065
 390	1.9500e-001	-27.565002	-35.578581
 391	1.9550e-001	-24.848938	-35.432217
 392	1.9600e-001	-22.232056	-35.212671
 393	1.9650e-001	-20.126343	-35.183399
 394	1.9700e-001	-17.700195	-34.846762
 395	1.9750e-001	-14.945984	-34.856520
 396	1.9800e-001	-12.695313	-34.544277
 397	1.9850e-001	-9.948730	-34.456459
 398	1.9900e-001	-7.476807	-34.246671
 399	1.9950e-001	-5.294800	-33.953943
 400	2.0000e-001	-2.235413	-33.900277
 401	2.0050e-001	-0.450134	-33.612428
 402	2.0100e-001	2.662659	-33.417276
 403	2.0150e-001	4.852295	-33.305064
 404	2.0200e-001	7.507324	-33.012337
 405	2.0250e-001	10.002136	-32.905003
 406	2.0300e-001	12.184143	-32.646427
 407	2.0350e-001	14.846802	-32.417124
 408	2.0400e-001	17.333984	-32.221973
 409	2.0450e-001	19.813538	-32.017063
 410	2.0500e-001	22.453308	-31.890215
 411	2.0550e-001	24.795532	-31.587730
 412	2.0600e-001	27.580261	-31.412093
 413	2.0650e-001	29.624939	-31.168154
 414	2.0700e-001	32.226563	-30.894942
 415	2.0750e-001	34.889221	-30.611972
 416	2.0800e-001	37.910461	-30.382669
 417	2.0850e-001	39.634705	-30.050911
 418	2.0900e-001	42.205811	-29.841123
 419	2.0950e-001	44.555664	-29.470335
 420	2.1000e-001	47.210693	-29.265426
 421	2.1050e-001	48.957825	-28.836092
 422	2.1100e-001	52.490234	-28.631183
 423	2.1150e-001	54.725647	-28.323819
 424	2.1200e-001	57.319641	-27.918879
 425	2.1250e-001	59.738159	-27.587122
 426	2.1300e-001	62.500000	-27.089485
 427	2.1350e-001	64.689636	-26.640636
 428	2.1400e-001	67.253113	-26.186909
 429	2.1450e-001	69.808960	-25.659999
 430	2.1500e-001	72.624207	-25.181878
 431	2.1550e-001	74.539185	-24.508605
 432	2.1600e-001	77.140808	-23.737756
 433	2.1650e-001	79.551697	-22.962028
 434	2.1700e-001	82.427979	-22.122876
 435	2.1750e-001	84.358215	-21.117845
 436	2.1800e-001	86.891174	-19.922541
 437	2.1850e-001	89.355469	-18.761389
 438	2.1900e-001	91.857910	-17.419722
 439	2.1950e-001	94.215393	-15.926812
 440	2.2000e-001	96.817017	-14.321690
 441	2.2050e-001	99.029541	-12.516537
 442	2.2100e-001	101.600647	-10.506476
 443	2.2150e-001	104.530334	-8.340293
 444	2.2200e-001	106.903076	-6.022867
 445	2.2250e-001	108.985901	-3.671290
 446	2.2300e-001	111.694336	-1.144076
 447	2.2350e-001	113.677979	1.524622
 448	2.2400e-001	116.264343	4.471412
 449	2.2450e-001	119.064331	7.335262
 450	2.2500e-001	121.398926	10.423536
 451	2.2550e-001	123.596191	13.438629
 452	2.2600e-001	125.915527	16.580570
 453	2.2650e-001	128.944397	19.678602
 454	2.2700e-001	131.416321	22.791270
 455	2.2750e-001	133.384705	25.786848
 456	2.2800e-001	136.360168	28.636062
 457	2.2850e-001	139.183044	31.226699
 458	2.2900e-001	141.921997	33.383125
 459	2.2950e-001	144.149780	35.280974
 460	2.3000e-001	147.209167	36.456763
 461	2.3050e-001	149.627686	37.276400
 462	2.3100e-001	152.236938	37.739885
 463	2.3150e-001	154.731750	38.071643
 464	2.3200e-001	157.234192	38.276552
 465	2.3250e-001	159.881592	38.554643
 466	2.3300e-001	162.521362	38.705885
 467	2.3350e-001	164.909363	38.915673
 468	2.3400e-001	167.724609	39.101067
 469	2.3450e-001	169.792175	39.291340
 470	2.3500e-001	172.302246	39.374280
 471	2.3550e-001	174.720764	39.442583
 472	2.3600e-001	177.452087	39.686522
 473	2.3650e-001	179.939270	39.925583
 474	2.3700e-001	182.189941	40.076826
 475	2.3750e-001	184.974670	40.208553
 476	2.3800e-001	187.911987	40.315886
 477	2.3850e-001	189.826965	40.476886
 478	2.3900e-001	192.543030	40.535432
 479	2.3950e-001	194.564819	40.754977
 480	2.4000e-001	197.547913	40.886705
 481	2.4050e-001	199.974060	41.033068
 482	2.4100e-001	202.522278	41.203826
 483	2.4150e-001	204.856873	41.335553
 484	2.4200e-001	207.923889	41.481917
 485	2.4250e-001	209.968567	41.584372
 486	2.4300e-001	212.524414	41.696584
 487	2.4350e-001	214.996338	41.842948
 488	2.4400e-001	217.491150	41.911251
 489	2.4450e-001	219.871521	42.140554
 490	2.4500e-001	222.450256	42.360100
 491	2.4550e-001	224.853516	42.394251
 492	2.4600e-001	227.241516	42.496706
 493	2.4650e-001	229.804993	42.706494
 494	2.4700e-001	232.391357	42.877251
 495	2.4750e-001	234.977722	43.033373
 496	2.4800e-001	237.449646	43.174858
 497	2.4850e-001	239.967346	43.179736
 498	2.4900e-001	242.675781	43.413918
 499	2.4950e-001	244.926453	43.433433
 500	2.5000e-001	247.444153	43.604191
 501	2.5050e-001	249.771118	43.794464
 502	2.5100e-001	247.337341	43.760312
 503	2.5150e-001	245.071411	43.843252
 504	2.5200e-001	242.759705	43.706646
 505	2.5250e-001	239.830017	43.696888
 506	2.5300e-001	237.228394	43.638343
 507	2.5350e-001	235.382080	43.545646
 508	2.5400e-001	232.215881	43.604191
 509	2.5450e-001	229.789734	43.618827
 510	2.5500e-001	227.226257	43.491979
 511	2.5550e-001	224.861145	43.482221
 512	2.5600e-001	222.251892	43.423676
 513	2.5650e-001	220.237732	43.438312
 514	2.5700e-001	217.552185	43.384646
 515	2.5750e-001	214.637756	43.360252
 516	2.5800e-001	212.432861	43.296827
 517	2.5850e-001	209.960938	43.179736
 518	2.5900e-001	207.321167	43.052888
 519	2.5950e-001	204.879761	43.077282
 520	2.6000e-001	202.568054	43.067524
 521	2.6050e-001	200.057983	42.955312
 522	2.6100e-001	197.410583	42.843100
 523	2.6150e-001	194.892883	42.730888
 524	2.6200e-001	192.398071	42.716251
 525	2.6250e-001	190.093994	42.701615
 526	2.6300e-001	187.812805	42.638191
 527	2.6350e-001	184.913635	42.511342
 528	2.6400e-001	182.151794	42.477190
 529	2.6450e-001	179.679871	42.384493
 530	2.6500e-001	177.383423	42.316190
 531	2.6550e-001	174.949646	42.238130
 532	2.6600e-001	172.782898	42.189342
 533	2.6650e-001	169.822693	42.057615
 534	2.6700e-001	167.572021	41.989311
 535	2.6750e-001	164.787292	41.886857
 536	2.6800e-001	162.330627	41.769766
 537	2.6850e-001	159.767151	41.740493
 538	2.6900e-001	157.455444	41.623402
 539	2.6950e-001	155.303955	41.535584
 540	2.7000e-001	152.648926	41.423372
 541	2.7050e-001	149.635315	41.374584
 542	2.7100e-001	147.293091	41.247735
 543	2.7150e-001	144.706726	41.189190
 544	2.7200e-001	142.677307	41.086735
 545	2.7250e-001	139.839172	40.984281
 546	2.7300e-001	137.802124	40.872068
 547	2.7350e-001	135.032654	40.764735
 548	2.7400e-001	132.499695	40.745220
 549	2.7450e-001	130.027771	40.647644
 550	2.7500e-001	127.540588	40.511038
 551	2.7550e-001	125.122070	40.335401
 552	2.7600e-001	122.566223	40.281735
 553	2.7650e-001	119.682312	40.189038
 554	2.7700e-001	117.485046	40.047553
 555	2.7750e-001	114.807129	40.042674
 556	2.7800e-001	112.457275	39.871916
 557	2.7850e-001	109.916687	39.740189
 558	2.7900e-001	107.406616	39.608462
 559	2.7950e-001	105.026245	39.510886
 560	2.8000e-001	102.317810	39.330371
 561	2.8050e-001	99.899292	39.315734
 562	2.8100e-001	97.282410	39.179128
 563	2.8150e-001	94.879150	39.052279
 564	2.8200e-001	92.460632	38.896158
 565	2.8250e-001	89.866638	38.754673
 566	2.8300e-001	87.455750	38.657097
 567	2.8350e-001	85.418701	38.549764
 568	2.8400e-001	82.557678	38.388764
 569	2.8450e-001	79.925537	38.213127
 570	2.8500e-001	78.132629	38.110673
 571	2.8550e-001	74.836731	37.964309
 572	2.8600e-001	72.074890	37.842339
 573	2.8650e-001	69.984436	37.681339
 574	2.8700e-001	67.581177	37.603279
 575	2.8750e-001	65.101624	37.300794
 576	2.8800e-001	62.500000	37.144672
 577	2.8850e-001	59.669495	37.149551
 578	2.8900e-001	57.449341	36.910490
 579	2.8950e-001	54.023743	36.876339
 580	2.9000e-001	52.635193	36.651914
 581	2.9050e-001	49.980164	36.466520
 582	2.9100e-001	47.386169	36.290884
 583	2.9150e-001	44.998169	36.095732
 584	2.9200e-001	42.373657	35.861550
 585	2.9250e-001	40.046692	35.783490
 586	2.9300e-001	37.582397	35.544429
 587	2.9350e-001	34.759521	35.266338
 588	2.9400e-001	32.546997	35.129732
 589	2.9450e-001	29.922485	34.944338
 590	2.9500e-001	27.427673	34.676004
 591	2.9550e-001	25.337219	34.505247
 592	2.9600e-001	22.346497	34.334489
 593	2.9650e-001	19.859314	33.958822
 594	2.9700e-001	17.547607	33.744155
 595	2.9750e-001	14.999390	33.558761
 596	2.9800e-001	12.557983	33.266034
 597	2.9850e-001	10.070801	32.914761
 598	2.9900e-001	7.423401	32.709852
 599	2.9950e-001	5.088806	32.295154
 600	3.0000e-001	2.525330	31.963397
 601	3.0050e-001	-0.106812	31.621881
 602	3.0100e-001	-2.212524	31.158396
 603	3.0150e-001	-4.898071	30.812002
 604	3.0200e-001	-7.453918	30.216790
 605	3.0250e-001	-9.918213	29.597183
 606	3.0300e-001	-12.313843	29.128819
 607	3.0350e-001	-14.907837	28.460425
 608	3.0400e-001	-17.410278	27.787152
 609	3.0450e-001	-19.325256	27.055333
 610	3.0500e-001	-22.079468	26.074696
 611	3.0550e-001	-25.085449	24.962332
 612	3.0600e-001	-26.763916	23.947544
 613	3.0650e-001	-29.571533	22.722967
 614	3.0700e-001	-31.585693	21.269088
 615	3.0750e-001	-34.317017	19.800572
 616	3.0800e-001	-36.933899	18.161298
 617	3.0850e-001	-39.703369	16.312236
 618	3.0900e-001	-41.877747	14.482690
 619	3.0950e-001	-44.334412	12.267719
 620	3.1000e-001	-46.684265	10.121051
 621	3.1050e-001	-49.209595	7.847535
 622	3.1100e-001	-51.849365	5.232503
 623	3.1150e-001	-54.031372	2.505259
 624	3.1200e-001	-56.678772	-0.090258
 625	3.1250e-001	-58.876038	-2.807744
 626	3.1300e-001	-61.302185	-5.891140
 627	3.1350e-001	-64.010620	-8.745232
 628	3.1400e-001	-66.352844	-11.799355
 629	3.1450e-001	-68.916321	-14.804690
 630	3.1500e-001	-71.273804	-17.756358
 631	3.1550e-001	-74.172974	-20.542148
 632	3.1600e-001	-76.637268	-23.308422
 633	3.1650e-001	-79.116821	-25.923454
 634	3.1700e-001	-81.649780	-28.114031
 635	3.1750e-001	-84.678650	-30.094820
 636	3.1800e-001	-87.005615	-31.612124
 637	3.1850e-001	-89.782715	-32.680579
 638	3.1900e-001	-92.323303	-33.402640
 639	3.1950e-001	-95.046997	-34.022246
 640	3.2000e-001	-97.595215	-34.358883
 641	3.2050e-001	-99.952698	-34.734550
 642	3.2100e-001	-102.264404	-34.939459
 643	3.2150e-001	-105.010986	-35.285853
 644	3.2200e-001	-107.574463	-35.505399
 645	3.2250e-001	-110.023499	-35.705429
 646	3.2300e-001	-112.472534	-35.968884
 647	3.2350e-001	-115.142822	-36.227460
 648	3.2400e-001	-117.790222	-36.207945
 649	3.2450e-001	-119.842529	-36.461642
 650	3.2500e-001	-122.253418	-36.671430
 651	3.2550e-001	-124.801636	-36.793399
 652	3.2600e-001	-127.212524	-37.022703
 653	3.2650e-001	-130.004883	-37.252006
 654	3.2700e-001	-132.484436	-37.452036
 655	3.2750e-001	-134.941101	-37.617915
 656	3.2800e-001	-137.084961	-37.798430
 657	3.2850e-001	-139.953613	-37.935036
 658	3.2900e-001	-142.440796	-38.047249
 659	3.2950e-001	-144.882202	-38.320461
 660	3.3000e-001	-147.659302	-38.325340
 661	3.3050e-001	-149.856567	-38.491219
 662	3.3100e-001	-152.366638	-38.681491
 663	3.3150e-001	-155.143738	-38.779067
 664	3.3200e-001	-157.676697	-39.003492
 665	3.3250e-001	-160.484314	-39.223037
 666	3.3300e-001	-162.353516	-39.281583
 667	3.3350e-001	-164.947510	-39.481613
 668	3.3400e-001	-167.640686	-39.618219
 669	3.3450e-001	-169.868469	-39.745068
 670	3.3500e-001	-172.142029	-39.925583
 671	3.3550e-001	-175.346375	-40.081704
 672	3.3600e-001	-177.337646	-40.106098
 673	3.3650e-001	-180.015564	-40.350038
 674	3.3700e-001	-182.151794	-40.574462
 675	3.3750e-001	-185.424805	-40.608614
 676	3.3800e-001	-187.644958	-40.823280
 677	3.3850e-001	-189.758301	-40.901341
 678	3.3900e-001	-192.436218	-40.896462
 679	3.3950e-001	-194.923401	-41.052584
 680	3.4000e-001	-197.654724	-41.311160
 681	3.4050e-001	-199.966431	-41.408735
 682	3.4100e-001	-202.430725	-41.564857
 683	3.4150e-001	-204.742432	-41.740493
 684	3.4200e-001	-207.519531	-41.794160
 685	3.4250e-001	-209.869385	-41.984433
 686	3.4300e-001	-212.196350	-42.086887
 687	3.4350e-001	-214.843750	-42.223493
 688	3.4400e-001	-217.491150	-42.316190
 689	3.4450e-001	-220.100403	-42.418645
 690	3.4500e-001	-222.656250	-42.555251
 691	3.4550e-001	-225.013733	-42.672342
 692	3.4600e-001	-227.325439	-42.813827
 693	3.4650e-001	-230.110168	-42.979706
 694	3.4700e-001	-232.734680	-43.121191
 695	3.4750e-001	-235.000610	-43.213888
 696	3.4800e-001	-237.602234	-43.316342
 697	3.4850e-001	-240.089417	-43.404161
 698	3.4900e-001	-242.515564	-43.579797
 699	3.4950e-001	-245.025635	-43.692009
 700	3.5000e-001	-247.505188	-43.843252
 701	3.5050e-001	-250.137329	-43.774949
 702	3.5100e-001	-247.291565	-43.823737
 703	3.5150e-001	-245.147705	-43.784706
 704	3.5200e-001	-242.546082	-43.813979
 705	3.5250e-001	-239.814758	-43.726161
 706	3.5300e-001	-237.731934	-43.692009
 707	3.5350e-001	-235.015869	-43.560282
 708	3.5400e-001	-232.566833	-43.443191
 709	3.5450e-001	-230.278015	-43.404161
 710	3.5500e-001	-227.523804	-43.409040
 711	3.5550e-001	-224.845886	-43.335858
 712	3.5600e-001	-222.541809	-43.174858
 713	3.5650e-001	-220.115662	-43.209009
 714	3.5700e-001	-217.376709	-43.072403
 715	3.5750e-001	-215.026855	-43.028494
 716	3.5800e-001	-212.242126	-42.979706
 717	3.5850e-001	-210.136414	-42.857736
 718	3.5900e-001	-207.427979	-42.755282
 719	3.5950e-001	-204.788208	-42.760160
 720	3.6000e-001	-202.377319	-42.574766
 721	3.6050e-001	-200.080872	-42.486948
 722	3.6100e-001	-197.494507	-42.477190
 723	3.6150e-001	-195.068359	-42.369857
 724	3.6200e-001	-192.642212	-42.301554
 725	3.6250e-001	-190.071106	-42.257645
 726	3.6300e-001	-187.561035	-42.179584
 727	3.6350e-001	-184.959412	-42.052736
 728	3.6400e-001	-182.136536	-42.008827
 729	3.6450e-001	-180.389404	-41.803917
 730	3.6500e-001	-177.680969	-41.755129
 731	3.6550e-001	-174.621582	-41.633160
 732	3.6600e-001	-172.737122	-41.530705
 733	3.6650e-001	-169.898987	-41.559978
 734	3.6700e-001	-167.404175	-41.520948
 735	3.6750e-001	-165.122986	-41.433129
 736	3.6800e-001	-162.506104	-41.189190
 737	3.6850e-001	-160.461426	-41.145281
 738	3.6900e-001	-157.676697	-41.037947
 739	3.6950e-001	-155.097961	-40.964765
 740	3.7000e-001	-152.427673	-40.915977
 741	3.7050e-001	-150.177002	-40.769614
 742	3.7100e-001	-147.544861	-40.681796
 743	3.7150e-001	-145.027161	-40.628129
 744	3.7200e-001	-142.257690	-40.457371
 745	3.7250e-001	-140.342712	-40.462250
 746	3.7300e-001	-137.924194	-40.296371
 747	3.7350e-001	-134.727478	-40.237826
 748	3.7400e-001	-132.408142	-40.057310
 749	3.7450e-001	-130.088806	-39.910947
 750	3.7500e-001	-127.273560	-39.813371
 751	3.7550e-001	-125.007629	-39.710916
 752	3.7600e-001	-122.772217	-39.710916
 753	3.7650e-001	-119.857788	-39.608462
 754	3.7700e-001	-117.538452	-39.398674
 755	3.7750e-001	-115.089417	-39.301098
 756	3.7800e-001	-112.487793	-39.169370
 757	3.7850e-001	-110.038757	-39.066916
 758	3.7900e-001	-107.620239	-38.988855
 759	3.7950e-001	-105.117798	-38.896158
 760	3.8000e-001	-102.874756	-38.744916
 761	3.8050e-001	-100.296021	-38.681491
 762	3.8100e-001	-97.511292	-38.491219
 763	3.8150e-001	-95.092773	-38.349734
 764	3.8200e-001	-92.628479	-38.291188
 765	3.8250e-001	-89.950562	-38.193612
 766	3.8300e-001	-87.509155	-37.978946
 767	3.8350e-001	-85.174561	-37.935036
 768	3.8400e-001	-82.397461	-37.754521
 769	3.8450e-001	-80.131531	-37.686218
 770	3.8500e-001	-77.629089	-37.569127
 771	3.8550e-001	-75.325012	-37.408127
 772	3.8600e-001	-72.586060	-37.208097
 773	3.8650e-001	-70.114136	-37.095884
 774	3.8700e-001	-67.588806	-37.071490
 775	3.8750e-001	-65.139771	-36.866581
 776	3.8800e-001	-62.469482	-36.710460
 777	3.8850e-001	-59.944153	-36.529945
 778	3.8900e-001	-57.495117	-36.398217
 779	3.8950e-001	-55.030823	-36.271369
 780	3.9000e-001	-52.581787	-36.061581
 781	3.9050e-001	-50.262451	-35.949369
 782	3.9100e-001	-47.576904	-35.837156
 783	3.9150e-001	-45.051575	-35.602975
 784	3.9200e-001	-42.442322	-35.495641
 785	3.9250e-001	-39.772034	-35.388308
 786	3.9300e-001	-37.681580	-35.154126
 787	3.9350e-001	-34.782410	-34.993126
 788	3.9400e-001	-32.577515	-34.890671
 789	3.9450e-001	-30.113220	-34.656489
 790	3.9500e-001	-27.702332	-34.515004
 791	3.9550e-001	-25.260925	-34.383277
 792	3.9600e-001	-22.361755	-34.241792
 793	3.9650e-001	-20.225525	-33.978337
 794	3.9700e-001	-17.402649	-33.880761
 795	3.9750e-001	-15.258789	-33.661216
 796	3.9800e-001	-12.519836	-33.539246
 797	3.9850e-001	-10.269165	-33.329458
 798	3.9900e-001	-7.652283	-33.148943
 799	3.9950e-001	-5.210876	-32.939155
 800	4.0000e-001	-2.944946	-32.763518
 801	4.0050e-001	-0.259399	-32.534215

Center data before PMax,±Pr and ±Vc Calc.

PMax (µC/cm2):	4.38e+001
Pr (µC/cm2):	3.16e+001
-Pr (µC/cm2):	-3.25e+001
Vc:	1.13e+000
-Vc:	-5.66e-001
C (Max-Eff) (nF):	1.38e+000
K (Eff):	1.98e+003
Vert. (±Pr) Shift (µC/cm2):	-4.49e-001
Horiz. Shift (±Vc):	2.80e-001
Offset (µC/cm2):	3.45e+001

A (Loop Area - µC/cm2·Volts):	1.17e+002



Hysteresis Version: 5.16.2 - Radiant Technologies, Inc., 1999 - 3/20/18

